wavelength[Angstrom], flux[erg / (cm3 s)]
1.000000e+03, 1.235459e-31
1.001000e+03, 8.490931e-33
1.002001e+03, 2.219425e-40
1.003003e+03, 4.796305e-39
1.004006e+03, 8.273407e-37
1.005010e+03, 6.472838e-35
1.006015e+03, 1.144008e-38
1.007021e+03, 5.734223e-36
1.008028e+03, 1.488375e-37
1.009036e+03, 1.134639e-40
1.010045e+03, 6.975955e-40
1.011055e+03, 9.958257e-38
1.012066e+03, 2.835554e-39
1.013078e+03, 2.094071e-41
1.014091e+03, 1.918008e-41
1.015105e+03, 2.612177e-36
1.016121e+03, 3.067085e-35
1.017137e+03, 7.616701e-40
1.018154e+03, 1.316310e-35
1.019172e+03, 1.353424e-35
1.020191e+03, 6.094284e-36
1.021211e+03, 8.035876e-34
1.022233e+03, 7.203319e-32
1.023255e+03, 8.479820e-34
1.024278e+03, 1.387818e-35
1.025302e+03, 5.823981e-38
1.026328e+03, 3.585025e-37
1.027354e+03, 3.115248e-33
1.028381e+03, 9.754261e-38
1.029410e+03, 5.045134e-35
1.030439e+03, 1.517730e-33
1.031470e+03, 2.261239e-35
1.032501e+03, 9.042913e-32
1.033533e+03, 1.757723e-31
1.034567e+03, 4.088866e-32
1.035602e+03, 6.365348e-34
1.036637e+03, 7.675302e-37
1.037674e+03, 4.671894e-36
1.038712e+03, 1.679243e-34
1.039750e+03, 3.231529e-34
1.040790e+03, 1.164200e-36
1.041831e+03, 2.688213e-32
1.042873e+03, 6.003527e-32
1.043915e+03, 7.957365e-34
1.044959e+03, 1.869750e-30
1.046004e+03, 2.091918e-29
1.047050e+03, 2.853484e-29
1.048097e+03, 1.363106e-32
1.049145e+03, 1.249633e-36
1.050195e+03, 5.423967e-35
1.051245e+03, 2.136638e-36
1.052296e+03, 3.012591e-34
1.053348e+03, 4.400637e-35
1.054402e+03, 5.153557e-32
1.055456e+03, 6.986644e-31
1.056512e+03, 3.694668e-34
1.057568e+03, 1.207161e-31
1.058626e+03, 2.235007e-31
1.059684e+03, 5.930986e-29
1.060744e+03, 2.315577e-31
1.061805e+03, 9.270693e-33
1.062867e+03, 2.465009e-32
1.063929e+03, 3.140356e-33
1.064993e+03, 1.387139e-35
1.066058e+03, 2.661624e-31
1.067124e+03, 7.271937e-34
1.068191e+03, 5.998581e-29
1.069260e+03, 7.964672e-29
1.070329e+03, 8.571991e-34
1.071399e+03, 6.773400e-29
1.072471e+03, 2.664592e-28
1.073543e+03, 2.629964e-28
1.074617e+03, 5.877276e-32
1.075691e+03, 8.902905e-28
1.076767e+03, 7.186283e-28
1.077844e+03, 4.863079e-34
1.078922e+03, 8.225231e-33
1.080001e+03, 1.907582e-30
1.081081e+03, 1.735274e-31
1.082162e+03, 1.151147e-27
1.083244e+03, 1.245683e-26
1.084327e+03, 5.218877e-30
1.085411e+03, 1.070555e-29
1.086497e+03, 3.530639e-28
1.087583e+03, 1.346122e-26
1.088671e+03, 4.847113e-27
1.089759e+03, 2.256514e-27
1.090849e+03, 4.925558e-25
1.091940e+03, 3.000327e-26
1.093032e+03, 2.203053e-29
1.094125e+03, 1.235407e-31
1.095219e+03, 1.629098e-26
1.096314e+03, 3.322622e-27
1.097411e+03, 7.743401e-27
1.098508e+03, 4.441688e-25
1.099607e+03, 2.966430e-28
1.100706e+03, 2.096786e-28
1.101807e+03, 4.223981e-24
1.102909e+03, 3.092549e-22
1.104012e+03, 5.272873e-25
1.105116e+03, 5.276537e-25
1.106221e+03, 2.099384e-23
1.107327e+03, 2.230612e-24
1.108434e+03, 3.037885e-28
1.109543e+03, 2.395425e-29
1.110652e+03, 1.726663e-22
1.111763e+03, 3.968308e-22
1.112875e+03, 1.436619e-23
1.113988e+03, 1.327075e-23
1.115102e+03, 2.023767e-24
1.116217e+03, 3.228053e-27
1.117333e+03, 2.403001e-21
1.118450e+03, 5.313672e-20
1.119569e+03, 1.555651e-22
1.120688e+03, 4.050746e-23
1.121809e+03, 4.684023e-21
1.122931e+03, 7.072109e-23
1.124054e+03, 1.119329e-22
1.125178e+03, 1.014868e-22
1.126303e+03, 1.648544e-19
1.127429e+03, 1.017908e-20
1.128557e+03, 2.737765e-22
1.129685e+03, 3.513027e-22
1.130815e+03, 1.091323e-20
1.131946e+03, 4.937529e-23
1.133078e+03, 6.769810e-19
1.134211e+03, 7.236207e-18
1.135345e+03, 3.802879e-21
1.136480e+03, 9.266342e-17
1.137617e+03, 9.042578e-16
1.138754e+03, 1.403684e-17
1.139893e+03, 1.090255e-21
1.141033e+03, 6.790174e-17
1.142174e+03, 2.763135e-17
1.143316e+03, 1.620197e-17
1.144460e+03, 1.126977e-19
1.145604e+03, 1.232536e-20
1.146750e+03, 3.422675e-20
1.147896e+03, 8.375539e-18
1.149044e+03, 6.126119e-18
1.150193e+03, 3.432422e-17
1.151344e+03, 1.136635e-18
1.152495e+03, 5.554985e-17
1.153647e+03, 8.231260e-15
1.154801e+03, 2.587433e-15
1.155956e+03, 1.850541e-16
1.157112e+03, 5.844703e-16
1.158269e+03, 1.983317e-16
1.159427e+03, 7.123864e-17
1.160587e+03, 6.389735e-15
1.161747e+03, 1.343073e-18
1.162909e+03, 3.934289e-17
1.164072e+03, 1.082984e-15
1.165236e+03, 1.525163e-15
1.166401e+03, 2.788730e-19
1.167568e+03, 1.212903e-16
1.168735e+03, 4.006328e-16
1.169904e+03, 4.824532e-16
1.171074e+03, 8.287692e-14
1.172245e+03, 7.471420e-14
1.173417e+03, 2.394659e-14
1.174590e+03, 2.650957e-16
1.175765e+03, 8.599362e-16
1.176941e+03, 1.149347e-13
1.178118e+03, 2.373355e-13
1.179296e+03, 3.699612e-15
1.180475e+03, 8.123704e-14
1.181656e+03, 8.111657e-14
1.182837e+03, 2.788987e-14
1.184020e+03, 7.907277e-15
1.185204e+03, 1.154076e-15
1.186389e+03, 9.459887e-15
1.187576e+03, 1.489045e-13
1.188763e+03, 5.002548e-13
1.189952e+03, 4.803036e-13
1.191142e+03, 2.876329e-13
1.192333e+03, 4.547666e-15
1.193526e+03, 5.132884e-14
1.194719e+03, 2.692387e-13
1.195914e+03, 1.296005e-13
1.197110e+03, 5.293581e-13
1.198307e+03, 1.810892e-14
1.199505e+03, 1.460232e-13
1.200705e+03, 5.039957e-14
1.201905e+03, 1.517673e-14
1.203107e+03, 1.418379e-13
1.204310e+03, 2.115444e-13
1.205515e+03, 6.877410e-14
1.206720e+03, 1.568442e-13
1.207927e+03, 1.765250e-13
1.209135e+03, 2.901576e-13
1.210344e+03, 1.000164e-14
1.211554e+03, 1.194224e-13
1.212766e+03, 1.133851e-13
1.213979e+03, 6.562651e-14
1.215193e+03, 2.471566e-15
1.216408e+03, 7.982993e-15
1.217624e+03, 4.080773e-14
1.218842e+03, 5.272359e-14
1.220061e+03, 5.165294e-14
1.221281e+03, 5.940423e-14
1.222502e+03, 1.040197e-13
1.223724e+03, 3.461722e-13
1.224948e+03, 9.360175e-14
1.226173e+03, 3.125968e-13
1.227399e+03, 1.646236e-13
1.228627e+03, 1.915480e-13
1.229855e+03, 3.816185e-14
1.231085e+03, 2.159546e-13
1.232316e+03, 4.527008e-13
1.233549e+03, 3.336024e-13
1.234782e+03, 2.359510e-13
1.236017e+03, 1.710027e-13
1.237253e+03, 2.194731e-13
1.238490e+03, 3.451036e-13
1.239729e+03, 5.490387e-13
1.240968e+03, 2.210505e-13
1.242209e+03, 3.029869e-13
1.243452e+03, 3.771612e-13
1.244695e+03, 4.052829e-13
1.245940e+03, 2.319063e-13
1.247186e+03, 3.603065e-13
1.248433e+03, 4.258629e-13
1.249681e+03, 3.726344e-13
1.250931e+03, 4.512524e-13
1.252182e+03, 4.024591e-13
1.253434e+03, 4.063485e-13
1.254688e+03, 4.730153e-13
1.255942e+03, 3.217761e-13
1.257198e+03, 2.118445e-13
1.258455e+03, 2.781588e-13
1.259714e+03, 4.791869e-13
1.260974e+03, 3.192697e-13
1.262235e+03, 4.194262e-13
1.263497e+03, 4.565490e-13
1.264760e+03, 5.136781e-13
1.266025e+03, 4.483835e-13
1.267291e+03, 4.243760e-13
1.268558e+03, 4.687184e-13
1.269827e+03, 8.860480e-13
1.271097e+03, 6.490894e-13
1.272368e+03, 6.953683e-13
1.273640e+03, 1.102355e-12
1.274914e+03, 6.385872e-13
1.276189e+03, 7.782518e-13
1.277465e+03, 1.114183e-12
1.278742e+03, 8.626859e-13
1.280021e+03, 9.483999e-13
1.281301e+03, 1.628764e-12
1.282582e+03, 1.141115e-12
1.283865e+03, 2.030203e-12
1.285149e+03, 2.320035e-12
1.286434e+03, 1.577823e-12
1.287720e+03, 2.879867e-12
1.289008e+03, 3.122959e-12
1.290297e+03, 3.698245e-12
1.291588e+03, 4.506805e-12
1.292879e+03, 3.758885e-12
1.294172e+03, 6.392838e-12
1.295466e+03, 8.517872e-12
1.296762e+03, 9.700838e-12
1.298058e+03, 8.223536e-12
1.299356e+03, 1.196009e-11
1.300656e+03, 1.752884e-11
1.301956e+03, 2.418681e-11
1.303258e+03, 3.008361e-11
1.304562e+03, 3.428467e-11
1.305866e+03, 3.437412e-11
1.307172e+03, 3.042008e-11
1.308479e+03, 3.324449e-11
1.309788e+03, 3.286416e-11
1.311098e+03, 2.325475e-11
1.312409e+03, 1.826280e-11
1.313721e+03, 2.070947e-11
1.315035e+03, 1.685306e-11
1.316350e+03, 1.884009e-11
1.317666e+03, 2.172950e-11
1.318984e+03, 1.474737e-11
1.320303e+03, 1.877337e-11
1.321623e+03, 1.758495e-11
1.322945e+03, 1.476517e-11
1.324268e+03, 1.535085e-11
1.325592e+03, 1.758341e-11
1.326918e+03, 1.844740e-11
1.328244e+03, 2.445363e-11
1.329573e+03, 2.812084e-11
1.330902e+03, 4.044694e-11
1.332233e+03, 4.384175e-11
1.333565e+03, 4.752709e-11
1.334899e+03, 5.246462e-11
1.336234e+03, 5.031150e-11
1.337570e+03, 5.635917e-11
1.338908e+03, 5.014364e-11
1.340247e+03, 5.519578e-11
1.341587e+03, 6.455381e-11
1.342928e+03, 4.595714e-11
1.344271e+03, 6.340148e-11
1.345616e+03, 4.986638e-11
1.346961e+03, 5.345119e-11
1.348308e+03, 6.164703e-11
1.349656e+03, 5.695130e-11
1.351006e+03, 7.410723e-11
1.352357e+03, 1.014896e-10
1.353709e+03, 1.388226e-10
1.355063e+03, 1.687755e-10
1.356418e+03, 1.478370e-10
1.357775e+03, 1.539961e-10
1.359132e+03, 1.550003e-10
1.360492e+03, 1.260844e-10
1.361852e+03, 1.297853e-10
1.363214e+03, 1.211456e-10
1.364577e+03, 1.337010e-10
1.365942e+03, 1.091940e-10
1.367308e+03, 1.149174e-10
1.368675e+03, 9.976971e-11
1.370044e+03, 1.220755e-10
1.371414e+03, 1.054176e-10
1.372785e+03, 1.161522e-10
1.374158e+03, 1.004669e-10
1.375532e+03, 1.358088e-10
1.376908e+03, 1.362641e-10
1.378284e+03, 1.853782e-10
1.379663e+03, 1.973238e-10
1.381042e+03, 2.328161e-10
1.382423e+03, 2.748374e-10
1.383806e+03, 2.908222e-10
1.385190e+03, 3.200967e-10
1.386575e+03, 3.938818e-10
1.387961e+03, 4.754707e-10
1.389349e+03, 5.736855e-10
1.390739e+03, 5.893036e-10
1.392130e+03, 7.365753e-10
1.393522e+03, 8.812137e-10
1.394915e+03, 1.023306e-09
1.396310e+03, 1.294821e-09
1.397706e+03, 1.568196e-09
1.399104e+03, 1.904689e-09
1.400503e+03, 2.485350e-09
1.401904e+03, 2.675887e-09
1.403306e+03, 2.820162e-09
1.404709e+03, 3.043117e-09
1.406114e+03, 3.491578e-09
1.407520e+03, 3.693700e-09
1.408927e+03, 3.892569e-09
1.410336e+03, 3.953861e-09
1.411747e+03, 4.412076e-09
1.413158e+03, 3.913719e-09
1.414571e+03, 5.329763e-09
1.415986e+03, 4.917809e-09
1.417402e+03, 5.856998e-09
1.418819e+03, 6.109317e-09
1.420238e+03, 7.474115e-09
1.421658e+03, 6.556948e-09
1.423080e+03, 7.403744e-09
1.424503e+03, 7.353030e-09
1.425928e+03, 9.411445e-09
1.427354e+03, 7.528192e-09
1.428781e+03, 7.861975e-09
1.430210e+03, 8.731032e-09
1.431640e+03, 9.802898e-09
1.433072e+03, 9.941531e-09
1.434505e+03, 1.097774e-08
1.435939e+03, 1.055824e-08
1.437375e+03, 1.199476e-08
1.438813e+03, 1.259610e-08
1.440251e+03, 1.162196e-08
1.441692e+03, 1.114990e-08
1.443133e+03, 1.268129e-08
1.444576e+03, 1.349192e-08
1.446021e+03, 1.338750e-08
1.447467e+03, 1.160734e-08
1.448914e+03, 1.474922e-08
1.450363e+03, 1.545932e-08
1.451814e+03, 1.473401e-08
1.453266e+03, 1.734511e-08
1.454719e+03, 1.642406e-08
1.456174e+03, 1.758280e-08
1.457630e+03, 1.748669e-08
1.459087e+03, 1.806893e-08
1.460546e+03, 1.755165e-08
1.462007e+03, 1.994833e-08
1.463469e+03, 2.136409e-08
1.464932e+03, 2.153551e-08
1.466397e+03, 2.485481e-08
1.467864e+03, 2.466537e-08
1.469332e+03, 2.375100e-08
1.470801e+03, 2.676322e-08
1.472272e+03, 2.076502e-08
1.473744e+03, 2.626151e-08
1.475218e+03, 2.809407e-08
1.476693e+03, 2.799908e-08
1.478170e+03, 3.020704e-08
1.479648e+03, 3.133759e-08
1.481128e+03, 3.392398e-08
1.482609e+03, 3.384501e-08
1.484091e+03, 3.545119e-08
1.485575e+03, 3.814113e-08
1.487061e+03, 3.739564e-08
1.488548e+03, 4.098693e-08
1.490037e+03, 4.311936e-08
1.491527e+03, 4.375676e-08
1.493018e+03, 3.830301e-08
1.494511e+03, 3.746424e-08
1.496006e+03, 4.807641e-08
1.497502e+03, 4.787829e-08
1.498999e+03, 4.898561e-08
1.500498e+03, 4.790895e-08
1.501999e+03, 4.902885e-08
1.503501e+03, 5.078814e-08
1.505004e+03, 5.808874e-08
1.506509e+03, 6.033500e-08
1.508016e+03, 6.120087e-08
1.509524e+03, 6.212824e-08
1.511033e+03, 5.912581e-08
1.512544e+03, 5.056595e-08
1.514057e+03, 5.230149e-08
1.515571e+03, 5.129538e-08
1.517086e+03, 5.146887e-08
1.518603e+03, 4.716516e-08
1.520122e+03, 4.580881e-08
1.521642e+03, 3.962874e-08
1.523164e+03, 4.248832e-08
1.524687e+03, 4.286440e-08
1.526212e+03, 4.513427e-08
1.527738e+03, 4.690434e-08
1.529266e+03, 4.086939e-08
1.530795e+03, 3.865859e-08
1.532326e+03, 3.829013e-08
1.533858e+03, 3.755025e-08
1.535392e+03, 3.746257e-08
1.536927e+03, 4.234347e-08
1.538464e+03, 4.308762e-08
1.540003e+03, 3.759594e-08
1.541543e+03, 3.327094e-08
1.543084e+03, 4.168924e-08
1.544627e+03, 3.945678e-08
1.546172e+03, 4.003536e-08
1.547718e+03, 4.347275e-08
1.549266e+03, 4.058256e-08
1.550815e+03, 3.528923e-08
1.552366e+03, 3.331683e-08
1.553918e+03, 4.552083e-08
1.555472e+03, 4.615329e-08
1.557028e+03, 4.995338e-08
1.558585e+03, 5.788250e-08
1.560143e+03, 5.486974e-08
1.561703e+03, 6.433863e-08
1.563265e+03, 5.717350e-08
1.564828e+03, 6.299607e-08
1.566393e+03, 8.295087e-08
1.567960e+03, 6.833445e-08
1.569528e+03, 6.316404e-08
1.571097e+03, 6.969251e-08
1.572668e+03, 5.864409e-08
1.574241e+03, 6.981572e-08
1.575815e+03, 6.814624e-08
1.577391e+03, 9.396495e-08
1.578968e+03, 9.566265e-08
1.580547e+03, 6.273322e-08
1.582128e+03, 4.507274e-08
1.583710e+03, 7.544954e-08
1.585294e+03, 7.111253e-08
1.586879e+03, 7.895025e-08
1.588466e+03, 8.898462e-08
1.590054e+03, 8.143288e-08
1.591644e+03, 1.091351e-07
1.593236e+03, 5.585116e-08
1.594829e+03, 7.161566e-08
1.596424e+03, 7.705540e-08
1.598020e+03, 8.991180e-08
1.599618e+03, 9.148103e-08
1.601218e+03, 7.707379e-08
1.602819e+03, 8.897435e-08
1.604422e+03, 8.590130e-08
1.606027e+03, 7.101567e-08
1.607633e+03, 8.410429e-08
1.609240e+03, 5.932382e-08
1.610849e+03, 9.072949e-08
1.612460e+03, 7.159714e-08
1.614073e+03, 1.012880e-07
1.615687e+03, 1.141862e-07
1.617303e+03, 8.726920e-08
1.618920e+03, 1.372477e-07
1.620539e+03, 8.906422e-08
1.622159e+03, 9.091375e-08
1.623781e+03, 1.063140e-07
1.625405e+03, 1.749291e-07
1.627031e+03, 2.077434e-07
1.628658e+03, 5.220321e-07
1.630286e+03, 8.764269e-07
1.631917e+03, 7.195179e-07
1.633549e+03, 6.911585e-07
1.635182e+03, 3.682536e-07
1.636817e+03, 1.066329e-06
1.638454e+03, 2.487312e-07
1.640093e+03, 3.458451e-07
1.641733e+03, 7.128113e-07
1.643374e+03, 8.268765e-07
1.645018e+03, 1.218852e-06
1.646663e+03, 1.786406e-06
1.648309e+03, 3.470908e-06
1.649958e+03, 2.900444e-06
1.651608e+03, 5.250077e-07
1.653259e+03, 1.492069e-06
1.654913e+03, 1.577028e-06
1.656567e+03, 1.224312e-06
1.658224e+03, 1.654122e-06
1.659882e+03, 1.744132e-06
1.661542e+03, 5.104634e-06
1.663204e+03, 3.498082e-06
1.664867e+03, 6.467227e-06
1.666532e+03, 3.070440e-06
1.668198e+03, 2.107809e-06
1.669866e+03, 1.140164e-06
1.671536e+03, 2.281139e-06
1.673208e+03, 2.624877e-06
1.674881e+03, 5.153221e-06
1.676556e+03, 6.271428e-06
1.678233e+03, 8.317368e-06
1.679911e+03, 6.699576e-06
1.681591e+03, 6.459189e-06
1.683272e+03, 2.879740e-06
1.684956e+03, 5.875471e-06
1.686640e+03, 5.897118e-06
1.688327e+03, 5.072505e-06
1.690015e+03, 7.854014e-06
1.691705e+03, 1.481130e-05
1.693397e+03, 8.030330e-06
1.695091e+03, 4.118322e-05
1.696786e+03, 3.163947e-05
1.698482e+03, 1.587258e-05
1.700181e+03, 5.381878e-06
1.701881e+03, 1.266036e-05
1.703583e+03, 3.988689e-06
1.705287e+03, 2.012818e-05
1.706992e+03, 3.309988e-05
1.708699e+03, 3.780078e-05
1.710408e+03, 2.889913e-05
1.712118e+03, 5.638086e-05
1.713830e+03, 3.180457e-05
1.715544e+03, 7.310471e-05
1.717259e+03, 3.874512e-06
1.718977e+03, 1.684298e-05
1.720696e+03, 7.652389e-06
1.722416e+03, 2.210104e-05
1.724139e+03, 3.911753e-05
1.725863e+03, 5.811547e-05
1.727589e+03, 8.302231e-05
1.729316e+03, 1.532978e-04
1.731046e+03, 2.726887e-04
1.732777e+03, 3.010761e-04
1.734510e+03, 9.633937e-06
1.736244e+03, 1.253628e-05
1.737980e+03, 1.830457e-05
1.739718e+03, 2.245675e-05
1.741458e+03, 2.276429e-05
1.743199e+03, 7.842112e-05
1.744943e+03, 1.766025e-04
1.746688e+03, 9.921614e-05
1.748434e+03, 2.083468e-04
1.750183e+03, 3.276051e-04
1.751933e+03, 1.446877e-04
1.753685e+03, 1.663247e-05
1.755439e+03, 5.474865e-05
1.757194e+03, 7.218568e-05
1.758951e+03, 5.958987e-05
1.760710e+03, 1.333838e-04
1.762471e+03, 1.073975e-04
1.764233e+03, 1.908831e-04
1.765998e+03, 3.756831e-04
1.767764e+03, 7.784193e-04
1.769531e+03, 5.275547e-04
1.771301e+03, 2.875666e-04
1.773072e+03, 2.249629e-05
1.774845e+03, 5.556031e-05
1.776620e+03, 1.265640e-04
1.778397e+03, 1.166300e-04
1.780175e+03, 2.490319e-04
1.781955e+03, 5.610315e-04
1.783737e+03, 6.488410e-04
1.785521e+03, 6.825155e-04
1.787306e+03, 1.972759e-03
1.789094e+03, 1.059619e-03
1.790883e+03, 6.414177e-04
1.792674e+03, 4.852909e-05
1.794466e+03, 1.632687e-04
1.796261e+03, 2.786208e-04
1.798057e+03, 1.781971e-04
1.799855e+03, 1.434139e-03
1.801655e+03, 2.778914e-03
1.803457e+03, 1.686363e-03
1.805260e+03, 2.334509e-03
1.807065e+03, 2.513257e-03
1.808872e+03, 2.545328e-03
1.810681e+03, 4.756230e-03
1.812492e+03, 1.286617e-04
1.814304e+03, 3.069263e-04
1.816119e+03, 3.107785e-04
1.817935e+03, 2.145995e-03
1.819753e+03, 8.077827e-04
1.821573e+03, 1.093609e-03
1.823394e+03, 6.383276e-03
1.825218e+03, 2.640014e-03
1.827043e+03, 7.839883e-04
1.828870e+03, 1.667748e-03
1.830699e+03, 7.305999e-03
1.832529e+03, 3.279223e-04
1.834362e+03, 2.257621e-04
1.836196e+03, 3.547649e-04
1.838032e+03, 1.060184e-03
1.839871e+03, 1.645469e-03
1.841710e+03, 3.541414e-03
1.843552e+03, 8.638144e-03
1.845396e+03, 1.840423e-02
1.847241e+03, 1.589556e-02
1.849088e+03, 1.570227e-02
1.850937e+03, 7.276070e-03
1.852788e+03, 3.660270e-03
1.854641e+03, 4.480034e-04
1.856496e+03, 5.437191e-04
1.858352e+03, 1.486821e-03
1.860211e+03, 3.359278e-03
1.862071e+03, 4.862509e-03
1.863933e+03, 5.059788e-03
1.865797e+03, 8.576249e-03
1.867663e+03, 3.213877e-02
1.869530e+03, 2.491926e-02
1.871400e+03, 2.369424e-02
1.873271e+03, 6.015830e-03
1.875144e+03, 4.497221e-03
1.877020e+03, 1.516675e-03
1.878897e+03, 2.183540e-03
1.880776e+03, 4.561420e-03
1.882656e+03, 1.017673e-02
1.884539e+03, 3.421407e-02
1.886424e+03, 1.286840e-02
1.888310e+03, 1.527315e-02
1.890198e+03, 5.460269e-02
1.892088e+03, 9.431827e-02
1.893981e+03, 6.957179e-02
1.895875e+03, 2.140329e-02
1.897770e+03, 6.715332e-03
1.899668e+03, 3.769307e-03
1.901568e+03, 1.433766e-02
1.903469e+03, 2.960511e-02
1.905373e+03, 1.805733e-02
1.907278e+03, 1.770820e-02
1.909186e+03, 1.507486e-01
1.911095e+03, 1.204406e-01
1.913006e+03, 2.128441e-01
1.914919e+03, 1.685984e-01
1.916834e+03, 1.631877e-01
1.918751e+03, 7.241088e-02
1.920669e+03, 6.712170e-02
1.922590e+03, 4.180455e-02
1.924513e+03, 7.118299e-02
1.926437e+03, 8.794326e-02
1.928364e+03, 8.963681e-02
1.930292e+03, 2.466695e-01
1.932222e+03, 3.715279e-01
1.934154e+03, 8.446518e-02
1.936089e+03, 1.323689e-01
1.938025e+03, 1.024218e-01
1.939963e+03, 2.865458e-01
1.941903e+03, 4.894234e-01
1.943845e+03, 1.468331e-01
1.945788e+03, 2.758158e-02
1.947734e+03, 8.568350e-02
1.949682e+03, 3.628856e-02
1.951632e+03, 1.193512e-01
1.953583e+03, 4.589554e-01
1.955537e+03, 3.438999e-01
1.957492e+03, 3.467659e-01
1.959450e+03, 2.039976e-01
1.961409e+03, 9.927447e-02
1.963371e+03, 2.493932e-01
1.965334e+03, 4.769927e-01
1.967299e+03, 3.523233e-01
1.969267e+03, 3.183857e-01
1.971236e+03, 6.544445e-01
1.973207e+03, 5.530117e-01
1.975180e+03, 8.099921e-01
1.977156e+03, 8.195457e-01
1.979133e+03, 2.400573e+00
1.981112e+03, 1.879774e+00
1.983093e+03, 1.870232e+00
1.985076e+03, 3.419852e+00
1.987061e+03, 1.948149e+00
1.989048e+03, 2.189818e+00
1.991037e+03, 7.864181e-01
1.993028e+03, 1.023074e+00
1.995021e+03, 5.978172e-01
1.997016e+03, 6.943466e-01
1.999013e+03, 9.238328e-01
2.001012e+03, 9.127165e-01
2.003013e+03, 7.961980e-01
2.005016e+03, 1.327234e+00
2.007021e+03, 1.223272e+00
2.009028e+03, 1.145063e+00
2.011037e+03, 2.860942e+00
2.013048e+03, 3.178501e+00
2.015062e+03, 1.663678e+00
2.017077e+03, 5.242783e-01
2.019094e+03, 1.962180e+00
2.021113e+03, 7.947351e-01
2.023134e+03, 1.093064e+00
2.025157e+03, 1.981601e-01
2.027182e+03, 1.204588e-01
2.029209e+03, 1.313865e+00
2.031239e+03, 1.721546e+00
2.033270e+03, 3.187780e+00
2.035303e+03, 1.563321e+00
2.037338e+03, 1.826316e+00
2.039376e+03, 3.054313e+00
2.041415e+03, 8.359344e-01
2.043457e+03, 1.293877e+00
2.045500e+03, 1.145139e+00
2.047545e+03, 4.056660e+00
2.049593e+03, 8.243616e+00
2.051643e+03, 3.860157e+00
2.053694e+03, 3.504521e+00
2.055748e+03, 4.745445e+00
2.057804e+03, 9.388194e+00
2.059861e+03, 3.461120e+00
2.061921e+03, 1.512455e+00
2.063983e+03, 1.649691e+00
2.066047e+03, 1.644819e+00
2.068113e+03, 3.729766e+00
2.070181e+03, 2.917876e+00
2.072252e+03, 4.916880e+00
2.074324e+03, 1.027616e+00
2.076398e+03, 1.972882e+00
2.078475e+03, 1.778171e+00
2.080553e+03, 7.540777e+00
2.082634e+03, 1.644757e+00
2.084716e+03, 8.993274e-01
2.086801e+03, 2.525936e+00
2.088888e+03, 3.642724e+00
2.090977e+03, 3.506912e+00
2.093068e+03, 4.025395e+00
2.095161e+03, 8.979426e-01
2.097256e+03, 5.300550e+00
2.099353e+03, 2.315508e+00
2.101452e+03, 2.043725e+00
2.103554e+03, 2.806732e+00
2.105657e+03, 2.458760e+00
2.107763e+03, 9.407782e-01
2.109871e+03, 9.480089e-01
2.111981e+03, 4.834483e+00
2.114093e+03, 3.219920e+00
2.116207e+03, 9.309367e-01
2.118323e+03, 3.034835e+00
2.120441e+03, 5.442975e+00
2.122562e+03, 1.586369e+01
2.124684e+03, 1.505545e+01
2.126809e+03, 1.631677e+00
2.128936e+03, 2.071499e+00
2.131065e+03, 5.667074e+00
2.133196e+03, 7.521505e+00
2.135329e+03, 4.508861e+00
2.137464e+03, 8.354611e+00
2.139602e+03, 2.692140e+00
2.141741e+03, 3.919055e-01
2.143883e+03, 2.662985e+00
2.146027e+03, 3.649043e+00
2.148173e+03, 1.103284e+00
2.150321e+03, 1.778518e+00
2.152472e+03, 6.008914e+00
2.154624e+03, 4.759280e+00
2.156779e+03, 1.178274e+01
2.158935e+03, 3.101434e+00
2.161094e+03, 7.480734e+00
2.163255e+03, 1.158248e+00
2.165419e+03, 2.924343e+00
2.167584e+03, 1.905752e+00
2.169752e+03, 3.281958e+00
2.171921e+03, 4.963171e+00
2.174093e+03, 7.052611e+00
2.176268e+03, 2.359378e+01
2.178444e+03, 3.488759e-01
2.180622e+03, 1.401619e+00
2.182803e+03, 1.151397e+00
2.184986e+03, 4.190623e+00
2.187171e+03, 2.373050e+00
2.189358e+03, 7.889001e+00
2.191547e+03, 8.181383e+00
2.193739e+03, 1.129129e+01
2.195932e+03, 1.827747e+01
2.198128e+03, 2.052123e+01
2.200327e+03, 9.593916e-01
2.202527e+03, 9.802609e+00
2.204729e+03, 6.899494e+00
2.206934e+03, 4.558331e+01
2.209141e+03, 2.121495e+01
2.211350e+03, 2.180790e+01
2.213562e+03, 5.049301e+01
2.215775e+03, 3.866964e+01
2.217991e+03, 1.877210e+00
2.220209e+03, 1.577743e+00
2.222429e+03, 1.756601e+00
2.224651e+03, 6.032020e+00
2.226876e+03, 7.383693e+00
2.229103e+03, 1.636753e+01
2.231332e+03, 1.233436e+01
2.233563e+03, 9.165038e+01
2.235797e+03, 1.818274e+02
2.238033e+03, 3.605090e+00
2.240271e+03, 1.078042e+01
2.242511e+03, 8.154331e+00
2.244754e+03, 2.540457e+01
2.246998e+03, 2.819871e+01
2.249245e+03, 1.257944e+02
2.251495e+03, 1.317118e+02
2.253746e+03, 2.484923e+02
2.256000e+03, 1.291238e+02
2.258256e+03, 1.221803e+00
2.260514e+03, 1.029921e+00
2.262775e+03, 3.245691e+00
2.265037e+03, 1.062834e+01
2.267302e+03, 1.209024e+01
2.269570e+03, 1.764664e+01
2.271839e+03, 4.796636e+01
2.274111e+03, 9.392483e+01
2.276385e+03, 4.259817e+01
2.278662e+03, 7.171994e+01
2.280940e+03, 2.967057e+01
2.283221e+03, 3.490034e+01
2.285504e+03, 4.203874e+01
2.287790e+03, 6.506139e+01
2.290078e+03, 7.465472e+01
2.292368e+03, 2.713400e+02
2.294660e+03, 1.619243e+02
2.296955e+03, 3.113646e+02
2.299252e+03, 3.790661e+01
2.301551e+03, 1.906643e+00
2.303853e+03, 2.783893e+00
2.306156e+03, 8.182741e+00
2.308463e+03, 1.634722e+01
2.310771e+03, 4.016434e+01
2.313082e+03, 5.448802e+01
2.315395e+03, 3.176222e+02
2.317710e+03, 4.925732e+02
2.320028e+03, 2.006367e+02
2.322348e+03, 5.597765e+01
2.324670e+03, 2.130393e+02
2.326995e+03, 1.894173e+02
2.329322e+03, 1.948255e+02
2.331651e+03, 1.174999e+03
2.333983e+03, 1.489443e+03
2.336317e+03, 2.007367e+03
2.338653e+03, 1.115762e+03
2.340992e+03, 6.106439e+03
2.343333e+03, 1.535015e+03
2.345676e+03, 1.233459e+01
2.348022e+03, 8.156778e+00
2.350370e+03, 2.920531e+01
2.352720e+03, 3.829305e+01
2.355073e+03, 7.202062e+01
2.357428e+03, 9.224055e+01
2.359786e+03, 2.218293e+02
2.362145e+03, 2.976029e+02
2.364508e+03, 8.683839e+02
2.366872e+03, 1.093969e+01
2.369239e+03, 7.904475e+01
2.371608e+03, 1.213833e+02
2.373980e+03, 1.006666e+02
2.376354e+03, 2.833600e+02
2.378730e+03, 5.785070e+02
2.381109e+03, 1.256404e+03
2.383490e+03, 2.458949e+03
2.385873e+03, 2.500881e+03
2.388259e+03, 8.852794e+02
2.390648e+03, 3.180060e+02
2.393038e+03, 6.509233e+02
2.395431e+03, 8.043808e+02
2.397827e+03, 2.414691e+03
2.400225e+03, 3.104108e+03
2.402625e+03, 5.768531e+03
2.405027e+03, 2.118329e+04
2.407432e+03, 8.562668e+03
2.409840e+03, 2.875203e+04
2.412250e+03, 2.319320e+03
2.414662e+03, 1.572437e+02
2.417077e+03, 1.075782e+02
2.419494e+03, 1.194000e+02
2.421913e+03, 3.231372e+02
2.424335e+03, 4.016959e+02
2.426759e+03, 3.049014e+03
2.429186e+03, 1.169158e+04
2.431615e+03, 1.416587e+04
2.434047e+03, 4.427682e+03
2.436481e+03, 5.092971e+03
2.438918e+03, 1.039514e+04
2.441356e+03, 1.947855e+04
2.443798e+03, 3.078237e+04
2.446242e+03, 3.764553e+04
2.448688e+03, 1.578511e+04
2.451137e+03, 3.057607e+04
2.453588e+03, 7.635298e+04
2.456041e+03, 6.596849e+04
2.458497e+03, 1.300759e+04
2.460956e+03, 1.183729e+03
2.463417e+03, 4.731688e+02
2.465880e+03, 5.322140e+03
2.468346e+03, 1.501101e+04
2.470814e+03, 6.359632e+03
2.473285e+03, 1.699730e+03
2.475758e+03, 5.885593e+03
2.478234e+03, 6.096576e+03
2.480712e+03, 1.241084e+03
2.483193e+03, 3.895831e+02
2.485676e+03, 3.839090e+02
2.488162e+03, 1.357439e+02
2.490650e+03, 1.234516e+02
2.493141e+03, 6.472158e+02
2.495634e+03, 2.032877e+03
2.498130e+03, 2.902516e+03
2.500628e+03, 2.330994e+03
2.503128e+03, 4.969864e+03
2.505632e+03, 1.216793e+04
2.508137e+03, 8.745520e+03
2.510645e+03, 1.303997e+03
2.513156e+03, 2.564410e+03
2.515669e+03, 8.857203e+03
2.518185e+03, 2.845148e+03
2.520703e+03, 3.920244e+03
2.523224e+03, 5.951795e+02
2.525747e+03, 3.253779e+03
2.528273e+03, 1.581581e+03
2.530801e+03, 4.771747e+03
2.533332e+03, 3.409012e+04
2.535865e+03, 1.988796e+04
2.538401e+03, 7.010828e+04
2.540939e+03, 1.967910e+04
2.543480e+03, 4.257192e+04
2.546024e+03, 1.110189e+04
2.548570e+03, 3.474436e+04
2.551118e+03, 5.379374e+04
2.553669e+03, 3.833638e+05
2.556223e+03, 3.852937e+05
2.558779e+03, 2.295327e+05
2.561338e+03, 3.289799e+05
2.563899e+03, 6.309255e+04
2.566463e+03, 1.715153e+04
2.569030e+03, 4.343259e+04
2.571599e+03, 1.426411e+05
2.574170e+03, 1.752786e+05
2.576745e+03, 1.610115e+05
2.579321e+03, 4.011715e+05
2.581901e+03, 2.332170e+05
2.584483e+03, 1.987006e+05
2.587067e+03, 1.435108e+05
2.589654e+03, 4.646426e+04
2.592244e+03, 7.402415e+04
2.594836e+03, 1.943394e+05
2.597431e+03, 8.421080e+05
2.600028e+03, 5.136448e+05
2.602628e+03, 9.286822e+05
2.605231e+03, 1.355243e+06
2.607836e+03, 5.217392e+05
2.610444e+03, 9.040189e+05
2.613054e+03, 3.084149e+05
2.615667e+03, 9.560171e+05
2.618283e+03, 6.252624e+05
2.620901e+03, 1.724930e+06
2.623522e+03, 1.435187e+06
2.626146e+03, 5.023655e+06
2.628772e+03, 3.556086e+06
2.631401e+03, 4.494912e+06
2.634032e+03, 3.274818e+06
2.636666e+03, 6.720919e+06
2.639303e+03, 1.881689e+07
2.641942e+03, 5.508577e+06
2.644584e+03, 1.671424e+06
2.647229e+03, 2.817061e+05
2.649876e+03, 1.441330e+06
2.652526e+03, 1.295931e+06
2.655178e+03, 6.220802e+06
2.657834e+03, 4.770454e+06
2.660491e+03, 2.334668e+06
2.663152e+03, 4.259205e+06
2.665815e+03, 3.714451e+06
2.668481e+03, 1.864270e+06
2.671149e+03, 5.711342e+05
2.673820e+03, 1.674241e+06
2.676494e+03, 2.576404e+06
2.679171e+03, 2.397190e+06
2.681850e+03, 3.163945e+06
2.684532e+03, 8.849339e+06
2.687216e+03, 7.201944e+06
2.689904e+03, 2.306065e+06
2.692593e+03, 2.654175e+06
2.695286e+03, 1.937527e+06
2.697981e+03, 2.066945e+06
2.700679e+03, 2.974492e+06
2.703380e+03, 3.349951e+06
2.706083e+03, 4.843571e+06
2.708789e+03, 3.561682e+06
2.711498e+03, 2.196858e+06
2.714210e+03, 1.032512e+06
2.716924e+03, 2.389250e+05
2.719641e+03, 1.741882e+04
2.722360e+03, 4.054598e+04
2.725083e+03, 1.416532e+05
2.727808e+03, 9.623315e+05
2.730536e+03, 1.248927e+06
2.733266e+03, 1.021520e+06
2.736000e+03, 5.465197e+05
2.738736e+03, 2.585653e+05
2.741474e+03, 5.734790e+05
2.744216e+03, 6.624487e+04
2.746960e+03, 1.157372e+06
2.749707e+03, 5.998834e+05
2.752457e+03, 8.049749e+05
2.755209e+03, 1.363057e+06
2.757964e+03, 1.020981e+06
2.760722e+03, 4.891428e+06
2.763483e+03, 4.873212e+06
2.766246e+03, 1.119240e+07
2.769013e+03, 7.517756e+06
2.771782e+03, 2.731150e+06
2.774554e+03, 6.057860e+06
2.777328e+03, 1.165065e+07
2.780105e+03, 4.039365e+06
2.782886e+03, 4.651202e+06
2.785668e+03, 6.852920e+06
2.788454e+03, 2.909726e+06
2.791243e+03, 4.979069e+06
2.794034e+03, 1.510948e+06
2.796828e+03, 3.150458e+05
2.799625e+03, 2.057989e+05
2.802424e+03, 6.225659e+05
2.805227e+03, 2.925989e+06
2.808032e+03, 2.564157e+06
2.810840e+03, 3.994642e+06
2.813651e+03, 2.896587e+06
2.816464e+03, 3.211989e+06
2.819281e+03, 2.563171e+06
2.822100e+03, 1.233659e+06
2.824922e+03, 1.266180e+06
2.827747e+03, 7.524343e+05
2.830575e+03, 7.502369e+05
2.833406e+03, 4.306777e+05
2.836239e+03, 2.319607e+05
2.839075e+03, 1.550181e+05
2.841914e+03, 7.758548e+04
2.844756e+03, 3.859140e+04
2.847601e+03, 1.645546e+04
2.850448e+03, 4.660036e+03
2.853299e+03, 8.103635e+02
2.856152e+03, 7.223827e+03
2.859008e+03, 2.301917e+04
2.861867e+03, 5.735874e+04
2.864729e+03, 1.126537e+05
2.867594e+03, 2.367798e+05
2.870462e+03, 3.659790e+05
2.873332e+03, 6.068042e+05
2.876205e+03, 8.678157e+05
2.879082e+03, 1.806407e+06
2.881961e+03, 2.872297e+06
2.884843e+03, 4.413581e+06
2.887727e+03, 5.848877e+06
2.890615e+03, 8.028065e+06
2.893506e+03, 9.996411e+06
2.896399e+03, 1.261206e+07
2.899296e+03, 1.451972e+07
2.902195e+03, 1.701590e+07
2.905097e+03, 2.028197e+07
2.908002e+03, 2.329309e+07
2.910910e+03, 1.588944e+07
2.913821e+03, 7.635502e+06
2.916735e+03, 1.858928e+07
2.919652e+03, 4.545967e+07
2.922571e+03, 5.217022e+07
2.925494e+03, 4.579235e+07
2.928420e+03, 1.239391e+07
2.931348e+03, 1.440355e+07
2.934279e+03, 1.715523e+07
2.937214e+03, 1.325456e+06
2.940151e+03, 6.984666e+06
2.943091e+03, 5.261275e+06
2.946034e+03, 7.655246e+06
2.948980e+03, 1.398583e+06
2.951929e+03, 1.119456e+07
2.954881e+03, 2.120969e+06
2.957836e+03, 3.064137e+06
2.960794e+03, 1.822022e+07
2.963754e+03, 9.602804e+06
2.966718e+03, 5.144627e+05
2.969685e+03, 6.789957e+05
2.972655e+03, 9.974788e+05
2.975627e+03, 3.050140e+06
2.978603e+03, 1.356354e+07
2.981581e+03, 4.436263e+06
2.984563e+03, 6.659716e+05
2.987548e+03, 7.055606e+06
2.990535e+03, 1.647080e+07
2.993526e+03, 3.701804e+06
2.996519e+03, 2.273350e+06
2.999516e+03, 5.689353e+06
3.002515e+03, 5.589224e+05
3.005518e+03, 6.319450e+06
3.008523e+03, 1.895356e+06
3.011532e+03, 9.123493e+06
3.014543e+03, 8.439724e+06
3.017558e+03, 3.088274e+06
3.020575e+03, 3.635238e+05
3.023596e+03, 6.908441e+05
3.026620e+03, 1.628540e+06
3.029646e+03, 1.582416e+07
3.032676e+03, 2.811467e+07
3.035709e+03, 1.946213e+07
3.038744e+03, 2.947766e+06
3.041783e+03, 2.281736e+07
3.044825e+03, 1.620896e+07
3.047870e+03, 3.189766e+06
3.050918e+03, 4.032857e+06
3.053968e+03, 1.833693e+07
3.057022e+03, 1.599716e+07
3.060079e+03, 1.981093e+06
3.063140e+03, 4.843860e+07
3.066203e+03, 1.030319e+08
3.069269e+03, 2.270906e+08
3.072338e+03, 4.401282e+08
3.075410e+03, 3.113174e+08
3.078486e+03, 3.141021e+08
3.081564e+03, 7.129467e+07
3.084646e+03, 8.732489e+07
3.087731e+03, 2.591139e+08
3.090818e+03, 1.388899e+08
3.093909e+03, 2.640970e+07
3.097003e+03, 1.315706e+08
3.100100e+03, 9.274565e+07
3.103200e+03, 7.354061e+07
3.106303e+03, 5.276284e+08
3.109410e+03, 1.776902e+09
3.112519e+03, 2.199969e+09
3.115632e+03, 1.427724e+09
3.118747e+03, 2.426671e+09
3.121866e+03, 2.943143e+09
3.124988e+03, 3.882234e+09
3.128113e+03, 3.996272e+09
3.131241e+03, 2.300429e+09
3.134372e+03, 2.559952e+08
3.137507e+03, 1.514346e+09
3.140644e+03, 3.383466e+09
3.143785e+03, 4.354468e+09
3.146928e+03, 3.654561e+09
3.150075e+03, 6.656687e+09
3.153225e+03, 5.135310e+09
3.156379e+03, 1.027238e+10
3.159535e+03, 4.655851e+09
3.162695e+03, 7.485586e+09
3.165857e+03, 8.799521e+09
3.169023e+03, 1.121546e+10
3.172192e+03, 8.933845e+09
3.175364e+03, 1.276320e+10
3.178540e+03, 1.089485e+10
3.181718e+03, 2.766838e+09
3.184900e+03, 4.007569e+08
3.188085e+03, 2.307843e+09
3.191273e+03, 1.688165e+09
3.194464e+03, 4.100361e+08
3.197659e+03, 8.804018e+08
3.200856e+03, 1.094416e+09
3.204057e+03, 5.592427e+09
3.207261e+03, 9.627406e+09
3.210469e+03, 1.019631e+10
3.213679e+03, 4.855204e+09
3.216893e+03, 2.261448e+09
3.220110e+03, 7.488210e+09
3.223330e+03, 4.671066e+09
3.226553e+03, 1.691438e+09
3.229780e+03, 2.766045e+09
3.233009e+03, 1.371788e+09
3.236242e+03, 2.200628e+08
3.239479e+03, 6.406611e+09
3.242718e+03, 3.817213e+09
3.245961e+03, 1.262455e+09
3.249207e+03, 9.273246e+08
3.252456e+03, 1.133558e+10
3.255708e+03, 1.969891e+10
3.258964e+03, 2.523688e+10
3.262223e+03, 2.612117e+10
3.265485e+03, 6.609616e+09
3.268751e+03, 2.042328e+10
3.272020e+03, 6.944578e+09
3.275292e+03, 3.324702e+09
3.278567e+03, 2.222074e+10
3.281845e+03, 2.413338e+10
3.285127e+03, 1.844688e+10
3.288412e+03, 1.510733e+10
3.291701e+03, 2.399091e+10
3.294993e+03, 2.083244e+10
3.298288e+03, 1.058380e+10
3.301586e+03, 1.083792e+09
3.304887e+03, 5.228959e+08
3.308192e+03, 6.784069e+09
3.311500e+03, 1.367583e+10
3.314812e+03, 9.687246e+09
3.318127e+03, 8.282719e+09
3.321445e+03, 6.020570e+09
3.324766e+03, 2.146971e+10
3.328091e+03, 4.524678e+10
3.331419e+03, 4.020516e+10
3.334751e+03, 2.714952e+10
3.338085e+03, 2.849951e+10
3.341423e+03, 2.002292e+10
3.344765e+03, 1.624032e+10
3.348110e+03, 2.612771e+10
3.351458e+03, 3.029240e+09
3.354809e+03, 5.303538e+09
3.358164e+03, 1.922594e+10
3.361522e+03, 6.471398e+09
3.364884e+03, 9.474719e+09
3.368249e+03, 2.480850e+09
3.371617e+03, 3.876991e+08
3.374988e+03, 1.927462e+09
3.378363e+03, 5.444610e+09
3.381742e+03, 1.488295e+09
3.385124e+03, 9.204197e+09
3.388509e+03, 6.962281e+09
3.391897e+03, 8.972953e+08
3.395289e+03, 1.643699e+09
3.398684e+03, 1.009962e+10
3.402083e+03, 1.268873e+10
3.405485e+03, 6.042225e+09
3.408891e+03, 4.082779e+09
3.412300e+03, 8.541877e+08
3.415712e+03, 5.123012e+07
3.419128e+03, 1.315545e+09
3.422547e+03, 2.863508e+09
3.425969e+03, 1.545824e+09
3.429395e+03, 2.561950e+09
3.432825e+03, 6.766980e+08
3.436257e+03, 2.204477e+08
3.439694e+03, 4.041393e+07
3.443133e+03, 1.364002e+07
3.446576e+03, 5.912545e+07
3.450023e+03, 6.010623e+08
3.453473e+03, 3.896142e+08
3.456927e+03, 1.077937e+09
3.460383e+03, 3.829062e+08
3.463844e+03, 3.179864e+08
3.467308e+03, 1.383126e+08
3.470775e+03, 1.172452e+09
3.474246e+03, 3.573222e+08
3.477720e+03, 1.021557e+08
3.481198e+03, 1.939172e+09
3.484679e+03, 1.929340e+09
3.488164e+03, 1.199358e+09
3.491652e+03, 5.787166e+07
3.495143e+03, 3.784339e+08
3.498639e+03, 3.047224e+08
3.502137e+03, 9.890881e+08
3.505639e+03, 7.540314e+09
3.509145e+03, 5.116424e+09
3.512654e+03, 1.035071e+09
3.516167e+03, 3.224016e+08
3.519683e+03, 2.096786e+09
3.523203e+03, 5.099080e+08
3.526726e+03, 7.085792e+07
3.530253e+03, 2.166641e+09
3.533783e+03, 1.104876e+10
3.537317e+03, 2.658731e+10
3.540854e+03, 3.108185e+10
3.544395e+03, 3.972194e+10
3.547939e+03, 2.424414e+10
3.551487e+03, 1.721672e+10
3.555039e+03, 1.472429e+10
3.558594e+03, 8.850768e+09
3.562152e+03, 7.600832e+09
3.565714e+03, 2.138956e+09
3.569280e+03, 1.156498e+09
3.572849e+03, 7.957733e+08
3.576422e+03, 5.513387e+08
3.579999e+03, 3.208782e+07
3.583579e+03, 4.815039e+08
3.587162e+03, 6.195546e+08
3.590749e+03, 8.821958e+08
3.594340e+03, 5.114661e+07
3.597934e+03, 5.694065e+08
3.601532e+03, 1.811684e+09
3.605134e+03, 2.356131e+08
3.608739e+03, 2.782999e+08
3.612348e+03, 1.580925e+09
3.615960e+03, 6.635340e+09
3.619576e+03, 1.354156e+09
3.623196e+03, 8.491068e+09
3.626819e+03, 1.435691e+10
3.630446e+03, 7.571542e+09
3.634076e+03, 6.202334e+09
3.637710e+03, 1.563496e+10
3.641348e+03, 2.556616e+10
3.644989e+03, 5.920121e+09
3.648634e+03, 1.208770e+09
3.652283e+03, 7.457856e+09
3.655935e+03, 2.045863e+10
3.659591e+03, 3.786631e+10
3.663251e+03, 3.467855e+10
3.666914e+03, 4.458056e+10
3.670581e+03, 2.214303e+10
3.674251e+03, 1.584383e+10
3.677926e+03, 5.945268e+09
3.681604e+03, 5.365633e+08
3.685285e+03, 4.906201e+09
3.688971e+03, 5.686608e+09
3.692660e+03, 1.547249e+10
3.696352e+03, 1.417203e+10
3.700049e+03, 1.108301e+10
3.703749e+03, 2.670087e+09
3.707452e+03, 1.893178e+08
3.711160e+03, 1.358416e+09
3.714871e+03, 1.121397e+09
3.718586e+03, 1.852964e+08
3.722304e+03, 3.488618e+07
3.726027e+03, 5.144995e+08
3.729753e+03, 8.488560e+08
3.733482e+03, 2.897782e+08
3.737216e+03, 5.591241e+07
3.740953e+03, 3.286012e+08
3.744694e+03, 2.581390e+08
3.748439e+03, 6.145332e+07
3.752187e+03, 8.881505e+08
3.755939e+03, 3.663536e+09
3.759695e+03, 2.615591e+09
3.763455e+03, 5.188873e+09
3.767219e+03, 4.445453e+09
3.770986e+03, 1.939008e+10
3.774757e+03, 2.825917e+10
3.778532e+03, 3.420743e+10
3.782310e+03, 4.265631e+10
3.786092e+03, 1.996930e+10
3.789878e+03, 1.198937e+10
3.793668e+03, 3.114882e+10
3.797462e+03, 1.397935e+10
3.801259e+03, 1.621105e+10
3.805061e+03, 5.030347e+10
3.808866e+03, 2.935266e+10
3.812675e+03, 2.185871e+10
3.816487e+03, 7.490486e+09
3.820304e+03, 2.506828e+09
3.824124e+03, 6.380797e+08
3.827948e+03, 1.195100e+09
3.831776e+03, 7.953060e+09
3.835608e+03, 6.096574e+09
3.839444e+03, 1.153785e+10
3.843283e+03, 1.119058e+10
3.847126e+03, 1.271037e+10
3.850973e+03, 5.244287e+09
3.854824e+03, 1.810209e+09
3.858679e+03, 1.310119e+08
3.862538e+03, 2.936999e+08
3.866400e+03, 2.263085e+09
3.870267e+03, 8.078863e+09
3.874137e+03, 4.984076e+09
3.878011e+03, 1.601702e+09
3.881889e+03, 2.131375e+09
3.885771e+03, 9.738457e+08
3.889657e+03, 1.669032e+09
3.893547e+03, 5.730696e+09
3.897440e+03, 1.319232e+09
3.901338e+03, 1.506382e+09
3.905239e+03, 7.741316e+09
3.909144e+03, 1.021178e+10
3.913053e+03, 3.215579e+10
3.916966e+03, 1.859185e+10
3.920883e+03, 2.578431e+09
3.924804e+03, 1.384595e+09
3.928729e+03, 1.097659e+09
3.932658e+03, 2.702924e+09
3.936590e+03, 1.541389e+10
3.940527e+03, 1.514089e+10
3.944467e+03, 2.562985e+09
3.948412e+03, 8.062800e+09
3.952360e+03, 2.211832e+10
3.956313e+03, 1.624805e+10
3.960269e+03, 4.578436e+09
3.964229e+03, 3.420014e+09
3.968194e+03, 1.473633e+10
3.972162e+03, 3.286859e+10
3.976134e+03, 5.413213e+10
3.980110e+03, 7.760883e+10
3.984090e+03, 6.812683e+10
3.988074e+03, 1.173997e+11
3.992062e+03, 8.502004e+10
3.996054e+03, 1.303721e+11
4.000050e+03, 7.788093e+10
4.004050e+03, 1.671228e+11
4.008055e+03, 1.072886e+11
4.012063e+03, 1.446275e+11
4.016075e+03, 2.106315e+11
4.020091e+03, 1.411749e+11
4.024111e+03, 8.524397e+10
4.028135e+03, 4.443346e+10
4.032163e+03, 1.598411e+09
4.036195e+03, 7.534519e+09
4.040231e+03, 6.476311e+10
4.044272e+03, 3.005242e+10
4.048316e+03, 2.005455e+10
4.052364e+03, 1.548731e+11
4.056417e+03, 1.582245e+11
4.060473e+03, 1.734131e+11
4.064533e+03, 7.189029e+10
4.068598e+03, 1.682991e+11
4.072667e+03, 9.706535e+10
4.076739e+03, 1.639872e+11
4.080816e+03, 1.984511e+11
4.084897e+03, 1.925510e+11
4.088982e+03, 2.298070e+11
4.093071e+03, 1.503774e+11
4.097164e+03, 1.445071e+11
4.101261e+03, 8.646550e+10
4.105362e+03, 1.038209e+11
4.109468e+03, 1.263400e+11
4.113577e+03, 9.156393e+10
4.117691e+03, 9.485552e+10
4.121808e+03, 1.114326e+11
4.125930e+03, 1.273043e+11
4.130056e+03, 8.371445e+10
4.134186e+03, 5.654691e+10
4.138320e+03, 1.026641e+11
4.142459e+03, 7.126644e+10
4.146601e+03, 6.735720e+10
4.150748e+03, 7.676960e+10
4.154898e+03, 8.030314e+10
4.159053e+03, 7.688886e+10
4.163212e+03, 7.123942e+10
4.167376e+03, 5.348909e+10
4.171543e+03, 4.237399e+10
4.175714e+03, 3.098929e+10
4.179890e+03, 3.143464e+10
4.184070e+03, 2.840650e+10
4.188254e+03, 2.234256e+10
4.192442e+03, 1.790771e+10
4.196635e+03, 1.523719e+10
4.200831e+03, 1.110440e+10
4.205032e+03, 7.981345e+09
4.209237e+03, 5.839888e+09
4.213447e+03, 4.298931e+09
4.217660e+03, 2.455388e+09
4.221878e+03, 1.575280e+09
4.226100e+03, 6.803827e+08
4.230326e+03, 8.419329e+08
4.234556e+03, 1.720858e+09
4.238791e+03, 3.209939e+09
4.243029e+03, 5.030133e+09
4.247272e+03, 6.955581e+09
4.251520e+03, 6.268743e+09
4.255771e+03, 1.485957e+09
4.260027e+03, 9.520778e+09
4.264287e+03, 1.811741e+10
4.268551e+03, 2.034875e+10
4.272820e+03, 9.767306e+09
4.277093e+03, 3.744793e+09
4.281370e+03, 2.172431e+10
4.285651e+03, 2.163976e+10
4.289937e+03, 5.150437e+09
4.294227e+03, 1.867016e+10
4.298521e+03, 4.019116e+10
4.302819e+03, 3.694912e+10
4.307122e+03, 4.658599e+10
4.311429e+03, 6.950906e+10
4.315741e+03, 6.750508e+10
4.320057e+03, 6.437170e+10
4.324377e+03, 8.332452e+10
4.328701e+03, 8.062978e+10
4.333030e+03, 1.078262e+11
4.337363e+03, 1.212806e+11
4.341700e+03, 9.400569e+10
4.346042e+03, 1.135789e+11
4.350388e+03, 1.405736e+11
4.354738e+03, 7.038300e+10
4.359093e+03, 1.007550e+11
4.363452e+03, 1.317112e+11
4.367815e+03, 1.518289e+11
4.372183e+03, 1.334404e+11
4.376555e+03, 5.724449e+10
4.380932e+03, 9.056015e+10
4.385313e+03, 5.431437e+10
4.389698e+03, 1.213881e+11
4.394088e+03, 1.711820e+11
4.398482e+03, 1.149241e+11
4.402881e+03, 1.141759e+11
4.407283e+03, 5.579237e+10
4.411691e+03, 1.504306e+11
4.416102e+03, 1.479767e+11
4.420518e+03, 1.985016e+11
4.424939e+03, 6.653171e+10
4.429364e+03, 4.060467e+10
4.433793e+03, 9.397896e+10
4.438227e+03, 6.678611e+10
4.442665e+03, 9.801311e+10
4.447108e+03, 1.229742e+11
4.451555e+03, 1.532388e+11
4.456007e+03, 7.088485e+10
4.460463e+03, 8.426556e+10
4.464923e+03, 4.879604e+10
4.469388e+03, 7.295138e+10
4.473857e+03, 9.269257e+10
4.478331e+03, 1.086889e+11
4.482810e+03, 9.123456e+10
4.487292e+03, 1.155183e+11
4.491780e+03, 1.281143e+11
4.496272e+03, 1.413272e+11
4.500768e+03, 1.933617e+11
4.505269e+03, 1.274701e+11
4.509774e+03, 7.046648e+10
4.514284e+03, 9.526523e+10
4.518798e+03, 1.093531e+11
4.523317e+03, 1.272139e+11
4.527840e+03, 1.358403e+11
4.532368e+03, 1.236809e+11
4.536900e+03, 1.286631e+11
4.541437e+03, 2.052042e+11
4.545979e+03, 1.848079e+11
4.550525e+03, 9.589729e+10
4.555075e+03, 1.074040e+11
4.559630e+03, 1.443416e+11
4.564190e+03, 1.761335e+11
4.568754e+03, 1.937375e+11
4.573323e+03, 1.760089e+11
4.577896e+03, 2.135288e+11
4.582474e+03, 1.535371e+11
4.587056e+03, 5.088833e+10
4.591643e+03, 3.924343e+10
4.596235e+03, 4.121892e+10
4.600831e+03, 5.666516e+10
4.605432e+03, 5.542740e+10
4.610038e+03, 4.647857e+10
4.614648e+03, 1.278663e+11
4.619262e+03, 1.281789e+11
4.623882e+03, 1.436615e+11
4.628505e+03, 4.830915e+10
4.633134e+03, 4.111290e+10
4.637767e+03, 4.247741e+10
4.642405e+03, 5.119121e+10
4.647047e+03, 6.532058e+10
4.651694e+03, 7.313954e+10
4.656346e+03, 1.060288e+11
4.661002e+03, 1.417992e+11
4.665663e+03, 1.179135e+11
4.670329e+03, 6.590149e+10
4.674999e+03, 4.924635e+10
4.679674e+03, 6.223700e+10
4.684354e+03, 6.085982e+10
4.689038e+03, 1.078575e+11
4.693727e+03, 1.200090e+11
4.698421e+03, 1.202391e+11
4.703120e+03, 1.528757e+11
4.707823e+03, 1.731049e+11
4.712530e+03, 1.536198e+11
4.717243e+03, 7.435213e+10
4.721960e+03, 9.426933e+10
4.726682e+03, 1.226034e+11
4.731409e+03, 1.464183e+11
4.736140e+03, 1.535595e+11
4.740876e+03, 1.376600e+11
4.745617e+03, 1.794087e+11
4.750363e+03, 1.911414e+11
4.755113e+03, 2.326918e+11
4.759868e+03, 1.233222e+11
4.764628e+03, 2.665804e+10
4.769393e+03, 2.724476e+10
4.774162e+03, 3.345093e+10
4.778936e+03, 5.284580e+10
4.783715e+03, 4.569980e+10
4.788499e+03, 4.463433e+10
4.793288e+03, 6.127376e+10
4.798081e+03, 8.297486e+10
4.802879e+03, 9.717230e+10
4.807682e+03, 3.080526e+10
4.812490e+03, 3.042145e+10
4.817302e+03, 3.954277e+10
4.822119e+03, 4.871867e+10
4.826941e+03, 5.334168e+10
4.831768e+03, 6.067322e+10
4.836600e+03, 8.835905e+10
4.841437e+03, 9.800765e+10
4.846278e+03, 1.199406e+11
4.851124e+03, 5.715005e+10
4.855976e+03, 5.700795e+10
4.860832e+03, 8.095225e+10
4.865692e+03, 8.612153e+10
4.870558e+03, 1.159430e+11
4.875429e+03, 1.255889e+11
4.880304e+03, 1.455363e+11
4.885184e+03, 1.835154e+11
4.890070e+03, 2.413949e+11
4.894960e+03, 1.845529e+11
4.899855e+03, 1.729121e+11
4.904754e+03, 1.846478e+11
4.909659e+03, 1.978901e+11
4.914569e+03, 2.785117e+11
4.919483e+03, 3.446331e+11
4.924403e+03, 3.717739e+11
4.929327e+03, 4.188428e+11
4.934257e+03, 5.516531e+11
4.939191e+03, 5.016996e+11
4.944130e+03, 4.174943e+11
4.949074e+03, 5.666778e+11
4.954023e+03, 3.980396e+11
4.958977e+03, 2.806230e+10
4.963936e+03, 3.289476e+10
4.968900e+03, 4.517225e+10
4.973869e+03, 4.625789e+10
4.978843e+03, 5.454441e+10
4.983822e+03, 6.389626e+10
4.988806e+03, 8.022020e+10
4.993794e+03, 7.962920e+10
4.998788e+03, 7.735754e+10
5.003787e+03, 4.666745e+10
5.008791e+03, 4.745500e+10
5.013800e+03, 4.909890e+10
5.018813e+03, 5.831998e+10
5.023832e+03, 6.215042e+10
5.028856e+03, 7.261602e+10
5.033885e+03, 1.046122e+11
5.038919e+03, 1.166961e+11
5.043958e+03, 1.137541e+11
5.049002e+03, 1.203616e+11
5.054051e+03, 1.215325e+11
5.059105e+03, 1.119832e+11
5.064164e+03, 1.419039e+11
5.069228e+03, 1.863755e+11
5.074297e+03, 1.991785e+11
5.079372e+03, 1.794294e+11
5.084451e+03, 2.518373e+11
5.089535e+03, 2.268025e+11
5.094625e+03, 2.161237e+11
5.099720e+03, 2.270240e+11
5.104819e+03, 2.810312e+11
5.109924e+03, 2.112872e+11
5.115034e+03, 3.901903e+11
5.120149e+03, 3.260956e+11
5.125269e+03, 3.355093e+11
5.130394e+03, 2.695917e+11
5.135525e+03, 5.829124e+11
5.140660e+03, 4.718926e+11
5.145801e+03, 2.997929e+11
5.150947e+03, 3.035274e+11
5.156098e+03, 3.071642e+11
5.161254e+03, 8.432097e+11
5.166415e+03, 4.588739e+11
5.171582e+03, 3.041649e+10
5.176753e+03, 3.874380e+10
5.181930e+03, 3.597653e+10
5.187112e+03, 5.439082e+10
5.192299e+03, 7.439337e+10
5.197491e+03, 8.350973e+10
5.202689e+03, 1.000717e+11
5.207891e+03, 4.741454e+10
5.213099e+03, 1.181842e+11
5.218312e+03, 1.793580e+11
5.223531e+03, 2.571055e+11
5.228754e+03, 1.995151e+11
5.233983e+03, 2.822846e+11
5.239217e+03, 2.835369e+11
5.244456e+03, 1.583069e+11
5.249701e+03, 1.813873e+11
5.254950e+03, 2.936590e+11
5.260205e+03, 3.304622e+11
5.265465e+03, 1.929409e+11
5.270731e+03, 1.401010e+11
5.276002e+03, 2.963327e+11
5.281278e+03, 3.247378e+11
5.286559e+03, 3.873759e+11
5.291846e+03, 4.273379e+11
5.297137e+03, 4.344939e+11
5.302435e+03, 5.011806e+11
5.307737e+03, 6.295360e+11
5.313045e+03, 3.292796e+11
5.318358e+03, 3.610019e+11
5.323676e+03, 3.941050e+11
5.329000e+03, 2.394099e+11
5.334329e+03, 4.065076e+11
5.339663e+03, 4.820595e+11
5.345003e+03, 4.584804e+11
5.350348e+03, 5.231057e+11
5.355698e+03, 6.586824e+11
5.361054e+03, 3.548898e+11
5.366415e+03, 3.825136e+11
5.371781e+03, 3.069490e+11
5.377153e+03, 4.977296e+11
5.382530e+03, 5.542644e+11
5.387913e+03, 6.873495e+11
5.393301e+03, 5.610535e+11
5.398694e+03, 3.949815e+11
5.404093e+03, 5.269378e+11
5.409497e+03, 3.490179e+11
5.414906e+03, 6.050013e+11
5.420321e+03, 6.922312e+11
5.425741e+03, 6.154123e+11
5.431167e+03, 4.818125e+11
5.436598e+03, 5.873318e+11
5.442035e+03, 7.484174e+11
5.447477e+03, 4.603397e+11
5.452924e+03, 9.717658e+10
5.458377e+03, 1.109474e+11
5.463836e+03, 1.528567e+11
5.469300e+03, 1.879125e+11
5.474769e+03, 1.896448e+11
5.480244e+03, 2.075820e+11
5.485724e+03, 2.303786e+11
5.491210e+03, 2.944132e+11
5.496701e+03, 2.517739e+11
5.502198e+03, 1.474777e+11
5.507700e+03, 1.740765e+11
5.513207e+03, 2.195572e+11
5.518721e+03, 2.496631e+11
5.524239e+03, 2.813828e+11
5.529764e+03, 3.038476e+11
5.535293e+03, 2.947727e+11
5.540829e+03, 3.562623e+11
5.546370e+03, 3.943753e+11
5.551916e+03, 3.365068e+11
5.557468e+03, 4.378701e+11
5.563025e+03, 4.376942e+11
5.568588e+03, 3.709135e+11
5.574157e+03, 3.478475e+11
5.579731e+03, 3.769735e+11
5.585311e+03, 3.880715e+11
5.590896e+03, 3.482401e+11
5.596487e+03, 3.251626e+11
5.602083e+03, 2.052330e+11
5.607686e+03, 2.099642e+11
5.613293e+03, 2.170261e+11
5.618907e+03, 1.925472e+11
5.624525e+03, 2.128961e+11
5.630150e+03, 2.044507e+11
5.635780e+03, 2.161026e+11
5.641416e+03, 2.000987e+11
5.647057e+03, 2.382688e+11
5.652704e+03, 2.826713e+11
5.658357e+03, 2.954091e+11
5.664015e+03, 2.297670e+11
5.669679e+03, 2.385715e+11
5.675349e+03, 2.590604e+11
5.681024e+03, 3.015825e+11
5.686705e+03, 3.020043e+11
5.692392e+03, 3.610446e+11
5.698085e+03, 3.697038e+11
5.703783e+03, 3.567311e+11
5.709486e+03, 3.548513e+11
5.715196e+03, 3.606804e+11
5.720911e+03, 4.160193e+11
5.726632e+03, 4.117033e+11
5.732359e+03, 4.625362e+11
5.738091e+03, 5.000914e+11
5.743829e+03, 5.035555e+11
5.749573e+03, 5.062122e+11
5.755323e+03, 5.064978e+11
5.761078e+03, 3.381175e+11
5.766839e+03, 2.974968e+11
5.772606e+03, 3.266866e+11
5.778378e+03, 3.809104e+11
5.784157e+03, 4.116775e+11
5.789941e+03, 4.295496e+11
5.795731e+03, 4.451960e+11
5.801527e+03, 4.435685e+11
5.807328e+03, 4.487283e+11
5.813135e+03, 3.285762e+11
5.818949e+03, 3.124697e+11
5.824768e+03, 3.274207e+11
5.830592e+03, 3.236490e+11
5.836423e+03, 3.166450e+11
5.842259e+03, 2.620929e+11
5.848102e+03, 2.167052e+11
5.853950e+03, 1.600621e+11
5.859804e+03, 1.505848e+11
5.865663e+03, 1.177263e+11
5.871529e+03, 8.915254e+10
5.877401e+03, 5.337837e+10
5.883278e+03, 2.244924e+10
5.889161e+03, 3.593534e+09
5.895050e+03, 1.694877e+09
5.900945e+03, 8.521363e+09
5.906846e+03, 3.632848e+10
5.912753e+03, 7.102830e+10
5.918666e+03, 1.030285e+11
5.924585e+03, 1.256634e+11
5.930509e+03, 1.457096e+11
5.936440e+03, 1.720550e+11
5.942376e+03, 1.934699e+11
5.948319e+03, 1.919454e+11
5.954267e+03, 2.016580e+11
5.960221e+03, 2.021827e+11
5.966181e+03, 2.279172e+11
5.972148e+03, 2.407816e+11
5.978120e+03, 2.502508e+11
5.984098e+03, 2.830599e+11
5.990082e+03, 3.085920e+11
5.996072e+03, 3.149477e+11
6.002068e+03, 3.250440e+11
6.008070e+03, 3.129189e+11
6.014078e+03, 3.677987e+11
6.020092e+03, 3.837811e+11
6.026112e+03, 4.325455e+11
6.032139e+03, 4.682813e+11
6.038171e+03, 4.761840e+11
6.044209e+03, 4.870092e+11
6.050253e+03, 5.439206e+11
6.056303e+03, 5.776173e+11
6.062360e+03, 5.982942e+11
6.068422e+03, 6.190209e+11
6.074490e+03, 7.278949e+11
6.080565e+03, 8.113616e+11
6.086645e+03, 8.947699e+11
6.092732e+03, 7.482725e+11
6.098825e+03, 7.435239e+11
6.104924e+03, 6.561910e+11
6.111029e+03, 7.610143e+11
6.117140e+03, 8.993800e+11
6.123257e+03, 7.289699e+11
6.129380e+03, 9.373207e+11
6.135509e+03, 9.873225e+11
6.141645e+03, 1.127316e+12
6.147787e+03, 1.085209e+12
6.153934e+03, 5.856464e+11
6.160088e+03, 3.819994e+11
6.166248e+03, 2.386415e+11
6.172415e+03, 2.818408e+11
6.178587e+03, 2.641928e+11
6.184766e+03, 2.888588e+11
6.190950e+03, 2.137336e+11
6.197141e+03, 2.310016e+11
6.203338e+03, 2.542289e+11
6.209542e+03, 2.836829e+11
6.215751e+03, 2.337820e+11
6.221967e+03, 2.374162e+11
6.228189e+03, 2.056553e+11
6.234417e+03, 2.275651e+11
6.240652e+03, 2.349211e+11
6.246892e+03, 2.484727e+11
6.253139e+03, 2.795327e+11
6.259392e+03, 3.006794e+11
6.265652e+03, 3.234511e+11
6.271917e+03, 3.304845e+11
6.278189e+03, 3.282162e+11
6.284467e+03, 3.489300e+11
6.290752e+03, 3.698117e+11
6.297043e+03, 3.615051e+11
6.303340e+03, 4.040585e+11
6.309643e+03, 4.245900e+11
6.315953e+03, 5.114351e+11
6.322269e+03, 4.451573e+11
6.328591e+03, 4.501595e+11
6.334920e+03, 5.066655e+11
6.341254e+03, 5.582114e+11
6.347596e+03, 6.508492e+11
6.353943e+03, 5.241540e+11
6.360297e+03, 4.211655e+11
6.366658e+03, 4.501264e+11
6.373024e+03, 4.732330e+11
6.379397e+03, 4.861657e+11
6.385777e+03, 4.425552e+11
6.392162e+03, 4.443402e+11
6.398555e+03, 5.608810e+11
6.404953e+03, 6.004454e+11
6.411358e+03, 7.429236e+11
6.417769e+03, 5.948175e+11
6.424187e+03, 5.361522e+11
6.430611e+03, 5.720342e+11
6.437042e+03, 6.461630e+11
6.443479e+03, 7.428493e+11
6.449923e+03, 7.277611e+11
6.456372e+03, 7.105876e+11
6.462829e+03, 7.147507e+11
6.469292e+03, 9.525359e+11
6.475761e+03, 1.113206e+12
6.482237e+03, 7.914155e+11
6.488719e+03, 6.583174e+11
6.495208e+03, 7.843408e+11
6.501703e+03, 9.203566e+11
6.508205e+03, 1.093711e+12
6.514713e+03, 9.825494e+11
6.521227e+03, 1.035065e+12
6.527749e+03, 1.176390e+12
6.534276e+03, 1.266087e+12
6.540811e+03, 1.519202e+12
6.547352e+03, 1.167404e+12
6.553899e+03, 9.574202e+11
6.560453e+03, 1.059137e+12
6.567013e+03, 9.443501e+11
6.573580e+03, 8.252192e+11
6.580154e+03, 9.014095e+11
6.586734e+03, 1.006763e+12
6.593321e+03, 1.049059e+12
6.599914e+03, 9.517252e+11
6.606514e+03, 9.689841e+11
6.613120e+03, 9.314698e+11
6.619734e+03, 8.647411e+11
6.626353e+03, 7.975331e+11
6.632980e+03, 8.750522e+11
6.639613e+03, 7.718968e+11
6.646252e+03, 8.487317e+11
6.652899e+03, 5.520897e+11
6.659551e+03, 4.849799e+11
6.666211e+03, 5.893874e+11
6.672877e+03, 5.981252e+11
6.679550e+03, 5.694257e+11
6.686230e+03, 3.883355e+11
6.692916e+03, 4.638512e+11
6.699609e+03, 4.848847e+11
6.706308e+03, 4.322970e+11
6.713015e+03, 4.338775e+11
6.719728e+03, 3.629485e+11
6.726447e+03, 3.814113e+11
6.733174e+03, 4.193554e+11
6.739907e+03, 4.380514e+11
6.746647e+03, 4.669461e+11
6.753394e+03, 4.139625e+11
6.760147e+03, 4.494164e+11
6.766907e+03, 4.994440e+11
6.773674e+03, 5.710340e+11
6.780448e+03, 5.409609e+11
6.787228e+03, 4.096486e+11
6.794015e+03, 4.450777e+11
6.800809e+03, 4.940414e+11
6.807610e+03, 5.185403e+11
6.814418e+03, 5.474819e+11
6.821232e+03, 5.313817e+11
6.828053e+03, 5.588160e+11
6.834882e+03, 6.030017e+11
6.841716e+03, 6.179038e+11
6.848558e+03, 6.431607e+11
6.855407e+03, 5.121932e+11
6.862262e+03, 5.290903e+11
6.869124e+03, 5.781916e+11
6.875994e+03, 6.260791e+11
6.882869e+03, 6.300226e+11
6.889752e+03, 6.163563e+11
6.896642e+03, 6.907828e+11
6.903539e+03, 6.910272e+11
6.910442e+03, 8.258885e+11
6.917353e+03, 8.122488e+11
6.924270e+03, 8.246570e+11
6.931194e+03, 9.407434e+11
6.938126e+03, 9.781806e+11
6.945064e+03, 1.207645e+12
6.952009e+03, 1.359233e+12
6.958961e+03, 1.336392e+12
6.965920e+03, 1.602355e+12
6.972886e+03, 1.710548e+12
6.979859e+03, 1.813121e+12
6.986838e+03, 2.181945e+12
6.993825e+03, 1.676202e+12
7.000819e+03, 1.893524e+12
7.007820e+03, 1.968207e+12
7.014828e+03, 2.261942e+12
7.021843e+03, 2.481374e+12
7.028864e+03, 3.031861e+12
7.035893e+03, 2.779227e+12
7.042929e+03, 3.326799e+12
7.049972e+03, 3.836239e+12
7.057022e+03, 1.510689e+12
7.064079e+03, 5.778461e+11
7.071143e+03, 7.449873e+11
7.078214e+03, 8.224887e+11
7.085292e+03, 9.408961e+11
7.092378e+03, 4.915518e+11
7.099470e+03, 5.015779e+11
7.106570e+03, 5.772257e+11
7.113676e+03, 6.328494e+11
7.120790e+03, 7.580282e+11
7.127911e+03, 5.389816e+11
7.135039e+03, 4.526323e+11
7.142174e+03, 4.821334e+11
7.149316e+03, 5.276102e+11
7.156465e+03, 5.912469e+11
7.163622e+03, 5.448449e+11
7.170785e+03, 5.975390e+11
7.177956e+03, 6.678056e+11
7.185134e+03, 7.491360e+11
7.192319e+03, 8.257372e+11
7.199511e+03, 7.200034e+11
7.206711e+03, 6.866743e+11
7.213918e+03, 7.343530e+11
7.221132e+03, 8.266798e+11
7.228353e+03, 9.206217e+11
7.235581e+03, 9.866887e+11
7.242817e+03, 1.080127e+12
7.250059e+03, 1.357899e+12
7.257309e+03, 1.486072e+12
7.264567e+03, 1.633964e+12
7.271831e+03, 1.503682e+12
7.279103e+03, 1.682984e+12
7.286382e+03, 1.843806e+12
7.293669e+03, 2.116909e+12
7.300962e+03, 2.568013e+12
7.308263e+03, 2.714184e+12
7.315572e+03, 3.128371e+12
7.322887e+03, 3.589832e+12
7.330210e+03, 3.683314e+12
7.337540e+03, 4.122251e+12
7.344878e+03, 3.769651e+12
7.352223e+03, 4.119693e+12
7.359575e+03, 4.638703e+12
7.366934e+03, 5.283371e+12
7.374301e+03, 5.709852e+12
7.381676e+03, 5.306201e+12
7.389057e+03, 5.687741e+12
7.396446e+03, 6.146562e+12
7.403843e+03, 5.555919e+12
7.411247e+03, 6.271706e+12
7.418658e+03, 5.184098e+12
7.426077e+03, 5.592987e+12
7.433503e+03, 6.486634e+12
7.440936e+03, 6.201531e+12
7.448377e+03, 5.337409e+12
7.455825e+03, 5.466495e+12
7.463281e+03, 5.559928e+12
7.470745e+03, 6.119151e+12
7.478215e+03, 5.991618e+12
7.485694e+03, 5.769785e+12
7.493179e+03, 6.119134e+12
7.500672e+03, 6.548599e+12
7.508173e+03, 6.330497e+12
7.515681e+03, 5.935085e+12
7.523197e+03, 6.535958e+12
7.530720e+03, 6.294799e+12
7.538251e+03, 6.653689e+12
7.545789e+03, 7.293974e+12
7.553335e+03, 7.227886e+12
7.560888e+03, 7.781647e+12
7.568449e+03, 7.382306e+12
7.576018e+03, 6.172585e+12
7.583594e+03, 7.219949e+12
7.591177e+03, 3.673693e+12
7.598768e+03, 2.870257e+12
7.606367e+03, 2.980847e+12
7.613973e+03, 3.096777e+12
7.621587e+03, 3.344028e+12
7.629209e+03, 2.144365e+12
7.636838e+03, 1.635535e+12
7.644475e+03, 1.449984e+12
7.652120e+03, 1.074902e+12
7.659772e+03, 4.701306e+11
7.667431e+03, 8.067654e+10
7.675099e+03, 4.891363e+11
7.682774e+03, 8.552703e+11
7.690457e+03, 8.204832e+11
7.698147e+03, 2.448607e+11
7.705845e+03, 4.068968e+11
7.713551e+03, 1.064301e+12
7.721265e+03, 1.454538e+12
7.728986e+03, 1.859687e+12
7.736715e+03, 2.300039e+12
7.744452e+03, 2.288349e+12
7.752196e+03, 1.772387e+12
7.759948e+03, 1.877837e+12
7.767708e+03, 2.091343e+12
7.775476e+03, 2.341535e+12
7.783252e+03, 2.204436e+12
7.791035e+03, 2.221332e+12
7.798826e+03, 2.089672e+12
7.806625e+03, 2.637403e+12
7.814431e+03, 3.328156e+12
7.822246e+03, 3.165006e+12
7.830068e+03, 2.619475e+12
7.837898e+03, 2.732198e+12
7.845736e+03, 2.869412e+12
7.853582e+03, 3.248564e+12
7.861435e+03, 3.466631e+12
7.869297e+03, 3.348396e+12
7.877166e+03, 3.873369e+12
7.885043e+03, 4.386096e+12
7.892928e+03, 4.758305e+12
7.900821e+03, 4.726952e+12
7.908722e+03, 4.303790e+12
7.916631e+03, 4.003138e+12
7.924547e+03, 4.246152e+12
7.932472e+03, 4.714533e+12
7.940404e+03, 4.935963e+12
7.948345e+03, 4.005720e+12
7.956293e+03, 5.729497e+12
7.964249e+03, 6.324516e+12
7.972214e+03, 6.449388e+12
7.980186e+03, 6.353507e+12
7.988166e+03, 6.056591e+12
7.996154e+03, 6.466667e+12
8.004150e+03, 6.898475e+12
8.012154e+03, 7.099089e+12
8.020167e+03, 7.781308e+12
8.028187e+03, 8.041640e+12
8.036215e+03, 8.270692e+12
8.044251e+03, 8.548234e+12
8.052295e+03, 8.249624e+12
8.060348e+03, 9.153307e+12
8.068408e+03, 9.170092e+12
8.076476e+03, 9.280851e+12
8.084553e+03, 1.038107e+13
8.092637e+03, 1.083131e+13
8.100730e+03, 1.167110e+13
8.108831e+03, 1.186017e+13
8.116940e+03, 1.070370e+13
8.125057e+03, 1.141508e+13
8.133182e+03, 1.357459e+13
8.141315e+03, 1.346098e+13
8.149456e+03, 1.451879e+13
8.157606e+03, 1.418408e+13
8.165763e+03, 1.340073e+13
8.173929e+03, 1.339802e+13
8.182103e+03, 8.485543e+12
8.190285e+03, 8.698436e+12
8.198475e+03, 5.228010e+12
8.206674e+03, 7.736834e+12
8.214880e+03, 8.780258e+12
8.223095e+03, 9.438065e+12
8.231318e+03, 1.081257e+13
8.239550e+03, 1.140422e+13
8.247789e+03, 1.156579e+13
8.256037e+03, 1.026927e+13
8.264293e+03, 1.126839e+13
8.272557e+03, 9.171365e+12
8.280830e+03, 8.838439e+12
8.289111e+03, 8.615729e+12
8.297400e+03, 8.860296e+12
8.305697e+03, 8.129200e+12
8.314003e+03, 8.821145e+12
8.322317e+03, 9.478887e+12
8.330639e+03, 9.344533e+12
8.338970e+03, 8.907500e+12
8.347309e+03, 8.540636e+12
8.355656e+03, 8.311434e+12
8.364012e+03, 9.024259e+12
8.372376e+03, 9.165892e+12
8.380748e+03, 8.633936e+12
8.389129e+03, 7.590482e+12
8.397518e+03, 8.768994e+12
8.405916e+03, 9.648369e+12
8.414322e+03, 9.352624e+12
8.422736e+03, 8.756928e+12
8.431159e+03, 8.356617e+12
8.439590e+03, 4.638387e+12
8.448029e+03, 3.321764e+12
8.456477e+03, 2.709603e+12
8.464934e+03, 2.829327e+12
8.473399e+03, 2.746950e+12
8.481872e+03, 3.263439e+12
8.490354e+03, 3.607967e+12
8.498845e+03, 3.774924e+12
8.507343e+03, 3.697849e+12
8.515851e+03, 3.608104e+12
8.524367e+03, 3.560567e+12
8.532891e+03, 3.662455e+12
8.541424e+03, 4.256806e+12
8.549965e+03, 4.790785e+12
8.558515e+03, 5.106876e+12
8.567074e+03, 5.417015e+12
8.575641e+03, 5.553112e+12
8.584216e+03, 5.690523e+12
8.592801e+03, 5.735977e+12
8.601393e+03, 5.916396e+12
8.609995e+03, 6.353817e+12
8.618605e+03, 6.839510e+12
8.627223e+03, 7.398919e+12
8.635851e+03, 7.168070e+12
8.644486e+03, 7.782832e+12
8.653131e+03, 7.699781e+12
8.661784e+03, 7.749666e+12
8.670446e+03, 8.371285e+12
8.679116e+03, 7.993713e+12
8.687795e+03, 8.067253e+12
8.696483e+03, 5.677666e+12
8.705180e+03, 5.829384e+12
8.713885e+03, 5.353591e+12
8.722599e+03, 6.007450e+12
8.731321e+03, 7.363628e+12
8.740053e+03, 6.833107e+12
8.748793e+03, 7.642936e+12
8.757542e+03, 8.886856e+12
8.766299e+03, 9.254477e+12
8.775065e+03, 1.137909e+13
8.783840e+03, 1.049902e+13
8.792624e+03, 1.137413e+13
8.801417e+03, 9.336075e+12
8.810218e+03, 9.896145e+12
8.819029e+03, 1.335904e+13
8.827848e+03, 9.846663e+12
8.836675e+03, 1.430283e+13
8.845512e+03, 1.242780e+13
8.854358e+03, 1.259490e+13
8.863212e+03, 6.115164e+12
8.872075e+03, 5.036178e+12
8.880947e+03, 5.703807e+12
8.889828e+03, 5.788514e+12
8.898718e+03, 6.398399e+12
8.907617e+03, 7.942506e+12
8.916524e+03, 7.325108e+12
8.925441e+03, 8.723696e+12
8.934366e+03, 8.120584e+12
8.943301e+03, 6.792593e+12
8.952244e+03, 7.278923e+12
8.961196e+03, 7.529278e+12
8.970157e+03, 7.931925e+12
8.979128e+03, 8.517466e+12
8.988107e+03, 1.014723e+13
8.997095e+03, 1.007793e+13
9.006092e+03, 1.015283e+13
9.015098e+03, 1.030455e+13
9.024113e+03, 1.006955e+13
9.033137e+03, 9.771282e+12
9.042170e+03, 1.144395e+13
9.051213e+03, 1.198400e+13
9.060264e+03, 1.127033e+13
9.069324e+03, 1.273232e+13
9.078393e+03, 1.285366e+13
9.087472e+03, 1.260429e+13
9.096559e+03, 1.419312e+13
9.105656e+03, 1.487561e+13
9.114761e+03, 1.592717e+13
9.123876e+03, 1.611870e+13
9.133000e+03, 1.578400e+13
9.142133e+03, 1.421001e+13
9.151275e+03, 1.655730e+13
9.160426e+03, 1.794972e+13
9.169587e+03, 1.845363e+13
9.178757e+03, 1.673408e+13
9.187935e+03, 1.890001e+13
9.197123e+03, 1.824345e+13
9.206320e+03, 1.679526e+13
9.215527e+03, 1.427817e+13
9.224742e+03, 1.174049e+13
9.233967e+03, 1.025285e+13
9.243201e+03, 1.184444e+13
9.252444e+03, 1.090253e+13
9.261697e+03, 1.182640e+13
9.270958e+03, 1.271167e+13
9.280229e+03, 1.118713e+13
9.289509e+03, 1.092193e+13
9.298799e+03, 9.508326e+12
9.308098e+03, 9.675611e+12
9.317406e+03, 1.009662e+13
9.326723e+03, 9.870347e+12
9.336050e+03, 1.109817e+13
9.345386e+03, 1.188896e+13
9.354731e+03, 1.087261e+13
9.364086e+03, 1.088722e+13
9.373450e+03, 1.118259e+13
9.382824e+03, 1.118722e+13
9.392206e+03, 1.111456e+13
9.401599e+03, 1.145789e+13
9.411000e+03, 1.279323e+13
9.420411e+03, 1.312596e+13
9.429832e+03, 1.341210e+13
9.439262e+03, 1.328100e+13
9.448701e+03, 1.282064e+13
9.458149e+03, 1.369432e+13
9.467608e+03, 1.330572e+13
9.477075e+03, 1.507955e+13
9.486552e+03, 1.516236e+13
9.496039e+03, 1.504632e+13
9.505535e+03, 1.566242e+13
9.515040e+03, 1.506108e+13
9.524555e+03, 1.620524e+13
9.534080e+03, 1.634879e+13
9.543614e+03, 1.606685e+13
9.553158e+03, 1.628409e+13
9.562711e+03, 1.711537e+13
9.572274e+03, 1.801647e+13
9.581846e+03, 1.851658e+13
9.591428e+03, 1.768494e+13
9.601019e+03, 1.495591e+13
9.610620e+03, 1.758675e+13
9.620231e+03, 1.834798e+13
9.629851e+03, 1.895283e+13
9.639481e+03, 1.565622e+13
9.649120e+03, 1.705395e+13
9.658769e+03, 1.944032e+13
9.668428e+03, 1.952407e+13
9.678097e+03, 1.729586e+13
9.687775e+03, 1.819039e+13
9.697463e+03, 2.047287e+13
9.707160e+03, 1.738849e+13
9.716867e+03, 1.954792e+13
9.726584e+03, 1.623452e+13
9.736311e+03, 1.701474e+13
9.746047e+03, 1.493158e+13
9.755793e+03, 1.651862e+13
9.765549e+03, 1.751987e+13
9.775314e+03, 1.594939e+13
9.785090e+03, 1.553661e+13
9.794875e+03, 1.693718e+13
9.804670e+03, 1.834375e+13
9.814474e+03, 1.626364e+13
9.824289e+03, 1.639307e+13
9.834113e+03, 1.563686e+13
9.843947e+03, 1.608670e+13
9.853791e+03, 1.731625e+13
9.863645e+03, 1.725549e+13
9.873509e+03, 1.744525e+13
9.883382e+03, 1.905022e+13
9.893265e+03, 1.579722e+13
9.903159e+03, 4.307966e+12
9.913062e+03, 2.726785e+12
9.922975e+03, 3.047936e+12
9.932898e+03, 3.937436e+12
9.942831e+03, 5.540201e+12
9.952774e+03, 7.315900e+12
9.962726e+03, 6.891200e+12
9.972689e+03, 5.664012e+12
9.982662e+03, 5.519426e+12
9.992644e+03, 5.939909e+12
1.000264e+04, 6.349019e+12
1.001264e+04, 6.391659e+12
1.002265e+04, 7.423004e+12
1.003268e+04, 9.103908e+12
1.004271e+04, 7.468620e+12
1.005275e+04, 6.192131e+12
1.006280e+04, 4.955783e+12
1.007287e+04, 7.975872e+12
1.008294e+04, 1.001585e+13
1.009302e+04, 7.432760e+12
1.010311e+04, 1.178530e+13
1.011322e+04, 7.558184e+12
1.012333e+04, 8.854057e+12
1.013345e+04, 8.194300e+12
1.014359e+04, 8.495608e+12
1.015373e+04, 9.343814e+12
1.016389e+04, 6.465191e+12
1.017405e+04, 1.011251e+13
1.018422e+04, 6.981232e+12
1.019441e+04, 8.611064e+12
1.020460e+04, 8.303979e+12
1.021481e+04, 1.010288e+13
1.022502e+04, 8.135589e+12
1.023525e+04, 8.684697e+12
1.024548e+04, 1.214709e+13
1.025573e+04, 7.591408e+12
1.026598e+04, 5.677256e+12
1.027625e+04, 7.041592e+12
1.028652e+04, 7.616393e+12
1.029681e+04, 7.922129e+12
1.030711e+04, 8.623239e+12
1.031742e+04, 8.587875e+12
1.032773e+04, 9.370592e+12
1.033806e+04, 8.173373e+12
1.034840e+04, 9.953483e+12
1.035875e+04, 9.623193e+12
1.036911e+04, 1.166493e+13
1.037947e+04, 1.076723e+13
1.038985e+04, 9.028879e+12
1.040024e+04, 1.076942e+13
1.041064e+04, 1.339549e+13
1.042106e+04, 9.721793e+12
1.043148e+04, 7.907157e+12
1.044191e+04, 1.233653e+13
1.045235e+04, 1.568674e+13
1.046280e+04, 1.609074e+13
1.047326e+04, 7.398745e+12
1.048374e+04, 1.191681e+13
1.049422e+04, 1.406131e+13
1.050472e+04, 1.334272e+13
1.051522e+04, 9.332595e+12
1.052574e+04, 1.000535e+13
1.053626e+04, 1.736768e+13
1.054680e+04, 1.347995e+13
1.055734e+04, 1.156084e+13
1.056790e+04, 1.047253e+13
1.057847e+04, 1.458729e+13
1.058905e+04, 1.486206e+13
1.059964e+04, 1.592934e+13
1.061024e+04, 1.306534e+13
1.062085e+04, 1.128491e+13
1.063147e+04, 1.507527e+13
1.064210e+04, 1.874404e+13
1.065274e+04, 1.604621e+13
1.066339e+04, 1.415173e+13
1.067406e+04, 1.233861e+13
1.068473e+04, 1.722366e+13
1.069542e+04, 1.691242e+13
1.070611e+04, 1.737356e+13
1.071682e+04, 1.953982e+13
1.072753e+04, 1.602138e+13
1.073826e+04, 1.876101e+13
1.074900e+04, 1.976990e+13
1.075975e+04, 2.058810e+13
1.077051e+04, 2.068541e+13
1.078128e+04, 2.149956e+13
1.079206e+04, 2.030470e+13
1.080285e+04, 2.071428e+13
1.081366e+04, 1.908329e+13
1.082447e+04, 2.181754e+13
1.083529e+04, 2.237928e+13
1.084613e+04, 2.134991e+13
1.085698e+04, 2.105844e+13
1.086783e+04, 2.146835e+13
1.087870e+04, 2.265710e+13
1.088958e+04, 2.066269e+13
1.090047e+04, 2.195147e+13
1.091137e+04, 2.137071e+13
1.092228e+04, 2.153548e+13
1.093320e+04, 2.179608e+13
1.094414e+04, 2.246134e+13
1.095508e+04, 2.164984e+13
1.096604e+04, 2.148178e+13
1.097700e+04, 1.980096e+13
1.098798e+04, 2.069002e+13
1.099897e+04, 2.084572e+13
1.100997e+04, 2.132471e+13
1.102098e+04, 1.912269e+13
1.103200e+04, 1.902823e+13
1.104303e+04, 1.911749e+13
1.105407e+04, 1.784511e+13
1.106513e+04, 1.876290e+13
1.107619e+04, 1.928393e+13
1.108727e+04, 1.883058e+13
1.109835e+04, 1.882318e+13
1.110945e+04, 1.836855e+13
1.112056e+04, 1.869770e+13
1.113168e+04, 1.943930e+13
1.114281e+04, 2.077294e+13
1.115396e+04, 1.896007e+13
1.116511e+04, 2.040524e+13
1.117628e+04, 1.920903e+13
1.118745e+04, 2.038738e+13
1.119864e+04, 1.914766e+13
1.120984e+04, 1.979579e+13
1.122105e+04, 1.971106e+13
1.123227e+04, 2.086287e+13
1.124350e+04, 2.035009e+13
1.125474e+04, 2.060204e+13
1.126600e+04, 2.143764e+13
1.127727e+04, 2.016194e+13
1.128854e+04, 2.089690e+13
1.129983e+04, 2.039780e+13
1.131113e+04, 2.140727e+13
1.132244e+04, 2.112634e+13
1.133376e+04, 2.040779e+13
1.134510e+04, 1.947341e+13
1.135644e+04, 1.960340e+13
1.136780e+04, 1.952005e+13
1.137917e+04, 1.508730e+13
1.139055e+04, 1.598784e+13
1.140194e+04, 1.393452e+13
1.141334e+04, 1.584669e+13
1.142475e+04, 1.916798e+13
1.143618e+04, 2.000963e+13
1.144761e+04, 2.016175e+13
1.145906e+04, 2.060735e+13
1.147052e+04, 2.130793e+13
1.148199e+04, 2.070043e+13
1.149347e+04, 2.161678e+13
1.150497e+04, 2.189376e+13
1.151647e+04, 2.187066e+13
1.152799e+04, 2.134402e+13
1.153952e+04, 2.100023e+13
1.155106e+04, 2.135183e+13
1.156261e+04, 2.107423e+13
1.157417e+04, 2.130944e+13
1.158574e+04, 2.177214e+13
1.159733e+04, 2.098192e+13
1.160893e+04, 1.872418e+13
1.162054e+04, 2.131741e+13
1.163216e+04, 2.188108e+13
1.164379e+04, 2.044382e+13
1.165543e+04, 2.067999e+13
1.166709e+04, 2.145071e+13
1.167875e+04, 2.034942e+13
1.169043e+04, 1.220561e+13
1.170212e+04, 1.795436e+13
1.171383e+04, 2.052445e+13
1.172554e+04, 2.205828e+13
1.173726e+04, 2.008170e+13
1.174900e+04, 2.043902e+13
1.176075e+04, 1.884152e+13
1.177251e+04, 9.782765e+12
1.178428e+04, 1.562022e+13
1.179607e+04, 1.999711e+13
1.180786e+04, 2.054218e+13
1.181967e+04, 2.096955e+13
1.183149e+04, 2.024496e+13
1.184332e+04, 2.155905e+13
1.185517e+04, 2.097270e+13
1.186702e+04, 2.137339e+13
1.187889e+04, 2.154873e+13
1.189077e+04, 1.823049e+13
1.190266e+04, 2.197171e+13
1.191456e+04, 2.126404e+13
1.192648e+04, 2.210722e+13
1.193840e+04, 1.992454e+13
1.195034e+04, 1.810272e+13
1.196229e+04, 1.783672e+13
1.197425e+04, 1.551771e+13
1.198623e+04, 1.733197e+13
1.199821e+04, 1.562011e+13
1.201021e+04, 1.613344e+13
1.202222e+04, 1.710169e+13
1.203424e+04, 1.739752e+13
1.204628e+04, 1.861581e+13
1.205833e+04, 2.094821e+13
1.207038e+04, 1.873430e+13
1.208245e+04, 2.064953e+13
1.209454e+04, 1.835916e+13
1.210663e+04, 1.761516e+13
1.211874e+04, 1.780578e+13
1.213086e+04, 1.893938e+13
1.214299e+04, 2.106770e+13
1.215513e+04, 2.091803e+13
1.216729e+04, 2.053007e+13
1.217945e+04, 2.127857e+13
1.219163e+04, 2.054558e+13
1.220382e+04, 1.873404e+13
1.221603e+04, 1.898476e+13
1.222824e+04, 1.907735e+13
1.224047e+04, 1.981958e+13
1.225271e+04, 2.184138e+13
1.226497e+04, 2.096751e+13
1.227723e+04, 2.107553e+13
1.228951e+04, 2.120901e+13
1.230180e+04, 2.099721e+13
1.231410e+04, 2.020525e+13
1.232641e+04, 1.983260e+13
1.233874e+04, 2.025148e+13
1.235108e+04, 1.972478e+13
1.236343e+04, 1.975643e+13
1.237579e+04, 1.985831e+13
1.238817e+04, 1.934711e+13
1.240056e+04, 1.830479e+13
1.241296e+04, 1.597527e+13
1.242537e+04, 1.509976e+13
1.243780e+04, 1.207454e+13
1.245023e+04, 1.898033e+13
1.246268e+04, 1.931034e+13
1.247515e+04, 1.905100e+13
1.248762e+04, 1.897838e+13
1.250011e+04, 1.845342e+13
1.251261e+04, 1.735269e+13
1.252512e+04, 1.093496e+13
1.253765e+04, 1.833140e+13
1.255018e+04, 1.794547e+13
1.256273e+04, 1.974830e+13
1.257530e+04, 1.981710e+13
1.258787e+04, 1.951151e+13
1.260046e+04, 1.918213e+13
1.261306e+04, 2.112250e+13
1.262567e+04, 1.878036e+13
1.263830e+04, 1.824204e+13
1.265094e+04, 1.930658e+13
1.266359e+04, 2.057616e+13
1.267625e+04, 1.945969e+13
1.268893e+04, 2.029030e+13
1.270162e+04, 1.963414e+13
1.271432e+04, 2.029321e+13
1.272703e+04, 2.131542e+13
1.273976e+04, 1.923621e+13
1.275250e+04, 1.933179e+13
1.276525e+04, 2.042296e+13
1.277802e+04, 1.996535e+13
1.279080e+04, 2.062240e+13
1.280359e+04, 2.024784e+13
1.281639e+04, 2.021412e+13
1.282921e+04, 1.950346e+13
1.284204e+04, 2.028564e+13
1.285488e+04, 1.938495e+13
1.286773e+04, 1.972780e+13
1.288060e+04, 1.968477e+13
1.289348e+04, 1.992219e+13
1.290637e+04, 1.902530e+13
1.291928e+04, 1.977123e+13
1.293220e+04, 2.012542e+13
1.294513e+04, 1.975591e+13
1.295808e+04, 2.123284e+13
1.297104e+04, 2.106198e+13
1.298401e+04, 2.089162e+13
1.299699e+04, 2.024523e+13
1.300999e+04, 2.032572e+13
1.302300e+04, 2.122305e+13
1.303602e+04, 2.108413e+13
1.304906e+04, 2.132698e+13
1.306211e+04, 2.120690e+13
1.307517e+04, 2.051279e+13
1.308824e+04, 2.027644e+13
1.310133e+04, 2.098649e+13
1.311443e+04, 2.114025e+13
1.312755e+04, 1.856694e+13
1.314067e+04, 2.057009e+13
1.315382e+04, 1.912426e+13
1.316697e+04, 2.118104e+13
1.318014e+04, 2.082641e+13
1.319332e+04, 2.136584e+13
1.320651e+04, 2.016184e+13
1.321972e+04, 1.953736e+13
1.323294e+04, 2.018398e+13
1.324617e+04, 1.997232e+13
1.325941e+04, 1.955906e+13
1.327267e+04, 1.903087e+13
1.328595e+04, 1.937224e+13
1.329923e+04, 1.828406e+13
1.331253e+04, 1.739077e+13
1.332584e+04, 1.478687e+13
1.333917e+04, 1.616016e+13
1.335251e+04, 1.068896e+13
1.336586e+04, 1.261934e+13
1.337923e+04, 1.131607e+13
1.339261e+04, 1.376834e+13
1.340600e+04, 1.290033e+13
1.341941e+04, 1.222906e+13
1.343283e+04, 1.151836e+13
1.344626e+04, 1.186286e+13
1.345970e+04, 1.292121e+13
1.347316e+04, 1.146303e+13
1.348664e+04, 1.244231e+13
1.350012e+04, 1.176150e+13
1.351362e+04, 1.179180e+13
1.352714e+04, 1.227894e+13
1.354066e+04, 1.075624e+13
1.355421e+04, 1.124074e+13
1.356776e+04, 1.249767e+13
1.358133e+04, 1.133962e+13
1.359491e+04, 1.195776e+13
1.360850e+04, 1.225177e+13
1.362211e+04, 1.060572e+13
1.363573e+04, 1.271476e+13
1.364937e+04, 1.143562e+13
1.366302e+04, 1.241368e+13
1.367668e+04, 1.280910e+13
1.369036e+04, 1.186513e+13
1.370405e+04, 1.224378e+13
1.371775e+04, 1.220564e+13
1.373147e+04, 1.235612e+13
1.374520e+04, 1.227128e+13
1.375895e+04, 1.302469e+13
1.377271e+04, 1.307507e+13
1.378648e+04, 1.256091e+13
1.380027e+04, 1.346673e+13
1.381407e+04, 1.368818e+13
1.382788e+04, 1.140501e+13
1.384171e+04, 1.336808e+13
1.385555e+04, 1.259949e+13
1.386941e+04, 1.318047e+13
1.388327e+04, 1.158642e+13
1.389716e+04, 1.271852e+13
1.391106e+04, 1.107548e+13
1.392497e+04, 1.128563e+13
1.393889e+04, 1.206037e+13
1.395283e+04, 1.122699e+13
1.396678e+04, 1.171552e+13
1.398075e+04, 1.042350e+13
1.399473e+04, 1.081398e+13
1.400873e+04, 1.056639e+13
1.402273e+04, 1.192647e+13
1.403676e+04, 1.193845e+13
1.405079e+04, 1.088820e+13
1.406484e+04, 1.193225e+13
1.407891e+04, 1.062760e+13
1.409299e+04, 1.064809e+13
1.410708e+04, 1.084070e+13
1.412119e+04, 9.431270e+12
1.413531e+04, 1.108990e+13
1.414944e+04, 1.022468e+13
1.416359e+04, 1.073346e+13
1.417776e+04, 9.306600e+12
1.419194e+04, 9.842964e+12
1.420613e+04, 1.090797e+13
1.422033e+04, 1.019398e+13
1.423455e+04, 9.210510e+12
1.424879e+04, 1.024054e+13
1.426304e+04, 9.697935e+12
1.427730e+04, 1.000241e+13
1.429158e+04, 9.026551e+12
1.430587e+04, 1.120839e+13
1.432018e+04, 9.859465e+12
1.433450e+04, 9.734353e+12
1.434883e+04, 1.031175e+13
1.436318e+04, 1.009887e+13
1.437754e+04, 1.065039e+13
1.439192e+04, 9.697954e+12
1.440631e+04, 1.023762e+13
1.442072e+04, 1.007063e+13
1.443514e+04, 1.171793e+13
1.444957e+04, 9.148466e+12
1.446402e+04, 1.062897e+13
1.447849e+04, 1.054061e+13
1.449297e+04, 1.114174e+13
1.450746e+04, 9.153068e+12
1.452197e+04, 1.216378e+13
1.453649e+04, 1.050434e+13
1.455102e+04, 1.134045e+13
1.456558e+04, 9.612733e+12
1.458014e+04, 1.154420e+13
1.459472e+04, 1.189892e+13
1.460932e+04, 1.072546e+13
1.462393e+04, 9.524374e+12
1.463855e+04, 1.107441e+13
1.465319e+04, 1.149776e+13
1.466784e+04, 1.106494e+13
1.468251e+04, 9.515941e+12
1.469719e+04, 1.011641e+13
1.471189e+04, 1.081816e+13
1.472660e+04, 1.132235e+13
1.474133e+04, 1.014346e+13
1.475607e+04, 1.058783e+13
1.477082e+04, 1.049302e+13
1.478560e+04, 1.147071e+13
1.480038e+04, 1.013801e+13
1.481518e+04, 1.038589e+13
1.483000e+04, 1.123214e+13
1.484483e+04, 1.073870e+13
1.485967e+04, 1.120649e+13
1.487453e+04, 1.145800e+13
1.488941e+04, 1.040758e+13
1.490429e+04, 1.080116e+13
1.491920e+04, 1.129503e+13
1.493412e+04, 1.106736e+13
1.494905e+04, 1.084081e+13
1.496400e+04, 1.112547e+13
1.497897e+04, 1.148954e+13
1.499394e+04, 1.137996e+13
1.500894e+04, 1.109234e+13
1.502395e+04, 1.072918e+13
1.503897e+04, 1.175610e+13
1.505401e+04, 1.156566e+13
1.506906e+04, 1.168343e+13
1.508413e+04, 1.100676e+13
1.509922e+04, 1.179386e+13
1.511432e+04, 1.160474e+13
1.512943e+04, 1.146379e+13
1.514456e+04, 1.222673e+13
1.515970e+04, 1.141032e+13
1.517486e+04, 9.960704e+12
1.519004e+04, 1.222966e+13
1.520523e+04, 1.186355e+13
1.522043e+04, 1.233181e+13
1.523566e+04, 1.258044e+13
1.525089e+04, 1.169027e+13
1.526614e+04, 1.164211e+13
1.528141e+04, 1.189334e+13
1.529669e+04, 1.254813e+13
1.531199e+04, 1.251505e+13
1.532730e+04, 1.114500e+13
1.534263e+04, 1.260661e+13
1.535797e+04, 1.252874e+13
1.537333e+04, 1.229577e+13
1.538870e+04, 1.277154e+13
1.540409e+04, 1.172171e+13
1.541949e+04, 1.236815e+13
1.543491e+04, 1.233212e+13
1.545035e+04, 1.297243e+13
1.546580e+04, 1.281844e+13
1.548126e+04, 1.242400e+13
1.549674e+04, 1.278870e+13
1.551224e+04, 1.235066e+13
1.552775e+04, 1.334054e+13
1.554328e+04, 1.255862e+13
1.555882e+04, 1.288800e+13
1.557438e+04, 1.247155e+13
1.558996e+04, 1.289944e+13
1.560555e+04, 1.283434e+13
1.562115e+04, 1.316506e+13
1.563677e+04, 1.335368e+13
1.565241e+04, 1.239197e+13
1.566806e+04, 1.351382e+13
1.568373e+04, 1.355718e+13
1.569941e+04, 1.313491e+13
1.571511e+04, 1.336958e+13
1.573083e+04, 1.322229e+13
1.574656e+04, 1.381540e+13
1.576231e+04, 1.344693e+13
1.577807e+04, 1.359353e+13
1.579385e+04, 1.380923e+13
1.580964e+04, 1.353050e+13
1.582545e+04, 1.400471e+13
1.584128e+04, 1.338286e+13
1.585712e+04, 1.405969e+13
1.587297e+04, 1.398417e+13
1.588885e+04, 1.404491e+13
1.590474e+04, 1.367429e+13
1.592064e+04, 1.402885e+13
1.593656e+04, 1.398491e+13
1.595250e+04, 1.426914e+13
1.596845e+04, 1.433876e+13
1.598442e+04, 1.419473e+13
1.600040e+04, 1.407329e+13
1.601640e+04, 1.431530e+13
1.603242e+04, 1.453312e+13
1.604845e+04, 1.404848e+13
1.606450e+04, 1.420465e+13
1.608057e+04, 1.437927e+13
1.609665e+04, 1.449699e+13
1.611274e+04, 1.428072e+13
1.612886e+04, 1.456206e+13
1.614498e+04, 1.446439e+13
1.616113e+04, 1.448076e+13
1.617729e+04, 1.493155e+13
1.619347e+04, 1.407744e+13
1.620966e+04, 1.438198e+13
1.622587e+04, 1.456585e+13
1.624210e+04, 1.488658e+13
1.625834e+04, 1.438390e+13
1.627460e+04, 1.484289e+13
1.629087e+04, 1.489603e+13
1.630716e+04, 1.478219e+13
1.632347e+04, 1.473707e+13
1.633979e+04, 1.499598e+13
1.635613e+04, 1.487920e+13
1.637249e+04, 1.495591e+13
1.638886e+04, 1.490659e+13
1.640525e+04, 1.493738e+13
1.642166e+04, 1.477475e+13
1.643808e+04, 1.510816e+13
1.645452e+04, 1.501013e+13
1.647097e+04, 1.520022e+13
1.648744e+04, 1.509457e+13
1.650393e+04, 1.496373e+13
1.652043e+04, 1.506442e+13
1.653695e+04, 1.503470e+13
1.655349e+04, 1.526690e+13
1.657004e+04, 1.533515e+13
1.658661e+04, 1.515606e+13
1.660320e+04, 1.501335e+13
1.661980e+04, 1.506145e+13
1.663642e+04, 1.535934e+13
1.665306e+04, 1.521103e+13
1.666971e+04, 1.509389e+13
1.668638e+04, 1.518448e+13
1.670307e+04, 1.528248e+13
1.671977e+04, 1.480181e+13
1.673649e+04, 1.523278e+13
1.675323e+04, 1.504567e+13
1.676998e+04, 1.500557e+13
1.678675e+04, 1.538855e+13
1.680354e+04, 1.515401e+13
1.682034e+04, 1.528010e+13
1.683716e+04, 1.523022e+13
1.685400e+04, 1.520893e+13
1.687085e+04, 1.493183e+13
1.688772e+04, 1.460638e+13
1.690461e+04, 1.499506e+13
1.692152e+04, 1.451861e+13
1.693844e+04, 1.492680e+13
1.695538e+04, 1.455069e+13
1.697233e+04, 1.409231e+13
1.698930e+04, 1.442403e+13
1.700629e+04, 1.414613e+13
1.702330e+04, 1.443740e+13
1.704032e+04, 1.396541e+13
1.705736e+04, 1.387404e+13
1.707442e+04, 1.360653e+13
1.709149e+04, 1.347820e+13
1.710859e+04, 1.304418e+13
1.712569e+04, 1.316412e+13
1.714282e+04, 1.258392e+13
1.715996e+04, 1.234978e+13
1.717712e+04, 1.212575e+13
1.719430e+04, 1.151971e+13
1.721149e+04, 1.258088e+13
1.722871e+04, 1.188544e+13
1.724593e+04, 1.259035e+13
1.726318e+04, 1.147123e+13
1.728044e+04, 1.199200e+13
1.729772e+04, 1.172654e+13
1.731502e+04, 1.113723e+13
1.733234e+04, 1.176494e+13
1.734967e+04, 1.075715e+13
1.736702e+04, 1.104441e+13
1.738439e+04, 1.129833e+13
1.740177e+04, 1.031994e+13
1.741917e+04, 1.066039e+13
1.743659e+04, 1.079867e+13
1.745403e+04, 1.051274e+13
1.747148e+04, 9.895499e+12
1.748895e+04, 1.060114e+13
1.750644e+04, 9.538533e+12
1.752395e+04, 1.051546e+13
1.754147e+04, 9.706591e+12
1.755901e+04, 8.712320e+12
1.757657e+04, 9.335127e+12
1.759415e+04, 9.634406e+12
1.761174e+04, 9.503920e+12
1.762936e+04, 8.715616e+12
1.764699e+04, 9.197249e+12
1.766463e+04, 9.578029e+12
1.768230e+04, 7.772457e+12
1.769998e+04, 9.368744e+12
1.771768e+04, 8.085671e+12
1.773540e+04, 8.784373e+12
1.775313e+04, 8.007188e+12
1.777089e+04, 7.998752e+12
1.778866e+04, 7.962912e+12
1.780644e+04, 8.185789e+12
1.782425e+04, 7.557914e+12
1.784208e+04, 8.431986e+12
1.785992e+04, 7.296200e+12
1.787778e+04, 7.073584e+12
1.789566e+04, 8.363429e+12
1.791355e+04, 6.839037e+12
1.793146e+04, 7.487612e+12
1.794940e+04, 7.574837e+12
1.796735e+04, 7.017422e+12
1.798531e+04, 8.224184e+12
1.800330e+04, 6.203467e+12
1.802130e+04, 6.855922e+12
1.803932e+04, 7.568249e+12
1.805736e+04, 6.747111e+12
1.807542e+04, 6.747814e+12
1.809349e+04, 7.478057e+12
1.811159e+04, 6.382687e+12
1.812970e+04, 6.609206e+12
1.814783e+04, 7.616825e+12
1.816598e+04, 7.136259e+12
1.818414e+04, 6.541583e+12
1.820233e+04, 6.448848e+12
1.822053e+04, 5.842291e+12
1.823875e+04, 8.513606e+12
1.825699e+04, 6.294177e+12
1.827525e+04, 6.642105e+12
1.829352e+04, 7.438728e+12
1.831181e+04, 6.721322e+12
1.833013e+04, 6.390917e+12
1.834846e+04, 6.812054e+12
1.836681e+04, 6.797930e+12
1.838517e+04, 6.378552e+12
1.840356e+04, 6.735257e+12
1.842196e+04, 6.226230e+12
1.844038e+04, 5.741016e+12
1.845882e+04, 6.279907e+12
1.847728e+04, 5.240941e+12
1.849576e+04, 5.750725e+12
1.851425e+04, 6.909901e+12
1.853277e+04, 5.611536e+12
1.855130e+04, 6.402534e+12
1.856985e+04, 5.011599e+12
1.858842e+04, 4.905487e+12
1.860701e+04, 4.752016e+12
1.862562e+04, 5.870996e+12
1.864424e+04, 5.262376e+12
1.866289e+04, 5.854971e+12
1.868155e+04, 5.689659e+12
1.870023e+04, 6.461906e+12
1.871893e+04, 5.832793e+12
1.873765e+04, 5.390418e+12
1.875639e+04, 6.075785e+12
1.877515e+04, 5.660255e+12
1.879392e+04, 5.615710e+12
1.881272e+04, 5.713387e+12
1.883153e+04, 7.194620e+12
1.885036e+04, 5.582124e+12
1.886921e+04, 6.547221e+12
1.888808e+04, 6.322177e+12
1.890697e+04, 6.195514e+12
1.892587e+04, 5.334998e+12
1.894480e+04, 6.137355e+12
1.896374e+04, 6.641984e+12
1.898271e+04, 5.913087e+12
1.900169e+04, 6.827072e+12
1.902069e+04, 6.374267e+12
1.903971e+04, 6.445848e+12
1.905875e+04, 6.141124e+12
1.907781e+04, 6.643540e+12
1.909689e+04, 6.489739e+12
1.911599e+04, 5.842800e+12
1.913510e+04, 6.748023e+12
1.915424e+04, 6.626194e+12
1.917339e+04, 6.133605e+12
1.919257e+04, 6.635402e+12
1.921176e+04, 6.103448e+12
1.923097e+04, 6.320432e+12
1.925020e+04, 6.315620e+12
1.926945e+04, 6.112201e+12
1.928872e+04, 6.475223e+12
1.930801e+04, 5.110463e+12
1.932732e+04, 5.971899e+12
1.934664e+04, 6.246194e+12
1.936599e+04, 6.272698e+12
1.938536e+04, 5.811945e+12
1.940474e+04, 5.339936e+12
1.942415e+04, 6.042189e+12
1.944357e+04, 5.533443e+12
1.946301e+04, 4.988200e+12
1.948248e+04, 5.429978e+12
1.950196e+04, 5.482486e+12
1.952146e+04, 5.514615e+12
1.954098e+04, 5.761869e+12
1.956052e+04, 5.301448e+12
1.958009e+04, 6.546741e+12
1.959967e+04, 5.638867e+12
1.961927e+04, 5.924846e+12
1.963888e+04, 5.606532e+12
1.965852e+04, 5.957160e+12
1.967818e+04, 5.848135e+12
1.969786e+04, 6.070262e+12
1.971756e+04, 5.892913e+12
1.973728e+04, 5.131464e+12
1.975701e+04, 4.875511e+12
1.977677e+04, 4.590170e+12
1.979655e+04, 4.865062e+12
1.981634e+04, 5.287846e+12
1.983616e+04, 5.443023e+12
1.985600e+04, 5.146938e+12
1.987585e+04, 5.022290e+12
1.989573e+04, 4.963009e+12
1.991562e+04, 4.884063e+12
1.993554e+04, 5.850483e+12
1.995547e+04, 5.436512e+12
1.997543e+04, 5.150254e+12
1.999541e+04, 5.238389e+12
2.001540e+04, 5.305665e+12
2.003542e+04, 5.778500e+12
2.005545e+04, 5.481975e+12
2.007551e+04, 5.699090e+12
2.009558e+04, 4.959574e+12
2.011568e+04, 5.111992e+12
2.013579e+04, 5.515164e+12
2.015593e+04, 5.433639e+12
2.017609e+04, 5.524819e+12
2.019626e+04, 4.760082e+12
2.021646e+04, 6.056762e+12
2.023667e+04, 5.669288e+12
2.025691e+04, 5.378517e+12
2.027717e+04, 5.370730e+12
2.029744e+04, 5.258897e+12
2.031774e+04, 5.716174e+12
2.033806e+04, 5.545701e+12
2.035840e+04, 5.537113e+12
2.037876e+04, 5.755496e+12
2.039914e+04, 5.474419e+12
2.041953e+04, 5.844179e+12
2.043995e+04, 5.412832e+12
2.046039e+04, 5.531947e+12
2.048085e+04, 5.760789e+12
2.050134e+04, 5.604404e+12
2.052184e+04, 5.855817e+12
2.054236e+04, 5.461493e+12
2.056290e+04, 5.786727e+12
2.058346e+04, 6.162731e+12
2.060405e+04, 5.738296e+12
2.062465e+04, 5.857488e+12
2.064528e+04, 5.421121e+12
2.066592e+04, 5.900715e+12
2.068659e+04, 5.896358e+12
2.070727e+04, 6.151014e+12
2.072798e+04, 5.699932e+12
2.074871e+04, 5.892618e+12
2.076946e+04, 5.968446e+12
2.079023e+04, 6.083078e+12
2.081102e+04, 5.953612e+12
2.083183e+04, 5.963193e+12
2.085266e+04, 6.111775e+12
2.087351e+04, 5.989761e+12
2.089439e+04, 5.884587e+12
2.091528e+04, 6.407388e+12
2.093620e+04, 6.174608e+12
2.095713e+04, 6.105185e+12
2.097809e+04, 6.173542e+12
2.099907e+04, 6.097828e+12
2.102007e+04, 6.343439e+12
2.104109e+04, 6.361575e+12
2.106213e+04, 6.349238e+12
2.108319e+04, 6.080763e+12
2.110427e+04, 6.614365e+12
2.112538e+04, 6.158559e+12
2.114650e+04, 6.573725e+12
2.116765e+04, 6.254786e+12
2.118882e+04, 6.414463e+12
2.121001e+04, 6.481333e+12
2.123122e+04, 6.518261e+12
2.125245e+04, 6.585222e+12
2.127370e+04, 6.450901e+12
2.129497e+04, 6.300716e+12
2.131627e+04, 6.578139e+12
2.133758e+04, 6.625734e+12
2.135892e+04, 6.786005e+12
2.138028e+04, 6.439226e+12
2.140166e+04, 6.488868e+12
2.142306e+04, 6.507327e+12
2.144449e+04, 6.984509e+12
2.146593e+04, 6.895081e+12
2.148740e+04, 6.573834e+12
2.150888e+04, 6.600047e+12
2.153039e+04, 6.602674e+12
2.155192e+04, 6.720321e+12
2.157347e+04, 6.832631e+12
2.159505e+04, 6.707353e+12
2.161664e+04, 6.861457e+12
2.163826e+04, 6.723088e+12
2.165990e+04, 6.795489e+12
2.168156e+04, 6.956906e+12
2.170324e+04, 6.793767e+12
2.172494e+04, 6.757665e+12
2.174667e+04, 6.848132e+12
2.176841e+04, 6.661681e+12
2.179018e+04, 6.694490e+12
2.181197e+04, 6.877231e+12
2.183378e+04, 6.671147e+12
2.185562e+04, 6.756619e+12
2.187747e+04, 6.830668e+12
2.189935e+04, 6.786861e+12
2.192125e+04, 6.800093e+12
2.194317e+04, 6.813194e+12
2.196512e+04, 6.755815e+12
2.198708e+04, 6.893229e+12
2.200907e+04, 6.836964e+12
2.203108e+04, 6.595313e+12
2.205311e+04, 6.316200e+12
2.207516e+04, 6.450522e+12
2.209724e+04, 6.376426e+12
2.211933e+04, 6.819490e+12
2.214145e+04, 6.812213e+12
2.216359e+04, 6.723082e+12
2.218576e+04, 6.721468e+12
2.220794e+04, 6.512950e+12
2.223015e+04, 6.817365e+12
2.225238e+04, 7.012013e+12
2.227463e+04, 6.627801e+12
2.229691e+04, 6.615171e+12
2.231921e+04, 6.889951e+12
2.234152e+04, 6.604245e+12
2.236387e+04, 6.592044e+12
2.238623e+04, 6.689081e+12
2.240862e+04, 6.785342e+12
2.243102e+04, 6.595316e+12
2.245346e+04, 6.779652e+12
2.247591e+04, 6.608874e+12
2.249839e+04, 6.613709e+12
2.252088e+04, 6.706574e+12
2.254340e+04, 6.538988e+12
2.256595e+04, 6.689956e+12
2.258851e+04, 6.595841e+12
2.261110e+04, 6.562376e+12
2.263371e+04, 6.417411e+12
2.265635e+04, 6.388545e+12
2.267900e+04, 6.598619e+12
2.270168e+04, 6.457078e+12
2.272438e+04, 6.453252e+12
2.274711e+04, 6.589318e+12
2.276986e+04, 6.586010e+12
2.279263e+04, 6.271141e+12
2.281542e+04, 6.466646e+12
2.283823e+04, 6.283990e+12
2.286107e+04, 6.585088e+12
2.288393e+04, 6.492143e+12
2.290682e+04, 6.405735e+12
2.292972e+04, 5.530220e+12
2.295265e+04, 4.838460e+12
2.297561e+04, 5.263108e+12
2.299858e+04, 5.653019e+12
2.302158e+04, 5.507279e+12
2.304460e+04, 5.725438e+12
2.306765e+04, 5.452647e+12
2.309071e+04, 5.676737e+12
2.311380e+04, 5.555730e+12
2.313692e+04, 5.667342e+12
2.316006e+04, 5.531464e+12
2.318322e+04, 5.581257e+12
2.320640e+04, 5.663749e+12
2.322961e+04, 4.364568e+12
2.325283e+04, 4.800353e+12
2.327609e+04, 5.033198e+12
2.329936e+04, 4.936120e+12
2.332266e+04, 5.298705e+12
2.334599e+04, 4.898602e+12
2.336933e+04, 5.009765e+12
2.339270e+04, 4.871149e+12
2.341609e+04, 5.123819e+12
2.343951e+04, 4.876196e+12
2.346295e+04, 5.216995e+12
2.348641e+04, 5.174104e+12
2.350990e+04, 4.909868e+12
2.353341e+04, 4.027918e+12
2.355694e+04, 4.655877e+12
2.358050e+04, 4.461419e+12
2.360408e+04, 4.591057e+12
2.362768e+04, 4.546112e+12
2.365131e+04, 4.909757e+12
2.367496e+04, 4.594336e+12
2.369864e+04, 4.647870e+12
2.372234e+04, 4.879054e+12
2.374606e+04, 4.665084e+12
2.376980e+04, 4.778948e+12
2.379357e+04, 4.595774e+12
2.381737e+04, 4.309269e+12
2.384119e+04, 4.068571e+12
2.386503e+04, 3.976581e+12
2.388889e+04, 4.295315e+12
2.391278e+04, 4.236911e+12
2.393669e+04, 4.513465e+12
2.396063e+04, 4.074532e+12
2.398459e+04, 4.276068e+12
2.400858e+04, 4.077882e+12
2.403258e+04, 3.985330e+12
2.405662e+04, 4.151552e+12
2.408067e+04, 3.629417e+12
2.410475e+04, 3.862592e+12
2.412886e+04, 3.665913e+12
2.415299e+04, 3.809904e+12
2.417714e+04, 3.618278e+12
2.420132e+04, 3.739158e+12
2.422552e+04, 3.338860e+12
2.424974e+04, 3.691159e+12
2.427399e+04, 3.237684e+12
2.429827e+04, 3.735718e+12
2.432257e+04, 3.340889e+12
2.434689e+04, 3.276292e+12
2.437124e+04, 2.935822e+12
2.439561e+04, 3.633009e+12
2.442000e+04, 3.218366e+12
2.444442e+04, 3.088857e+12
2.446887e+04, 3.119324e+12
2.449334e+04, 3.107580e+12
2.451783e+04, 2.979143e+12
2.454235e+04, 2.526201e+12
2.456689e+04, 3.386281e+12
2.459146e+04, 3.130773e+12
2.461605e+04, 2.711834e+12
2.464066e+04, 3.276505e+12
2.466530e+04, 2.761961e+12
2.468997e+04, 2.744138e+12
2.471466e+04, 2.810035e+12
2.473937e+04, 2.375664e+12
2.476411e+04, 2.830933e+12
2.478888e+04, 2.707713e+12
2.481367e+04, 2.373306e+12
2.483848e+04, 3.003832e+12
2.486332e+04, 2.760018e+12
2.488818e+04, 2.380801e+12
2.491307e+04, 2.329946e+12
2.493798e+04, 2.743193e+12
2.496292e+04, 2.717982e+12
2.498788e+04, 2.337323e+12
2.501287e+04, 2.667008e+12
2.503788e+04, 2.199922e+12
2.506292e+04, 2.102090e+12
2.508799e+04, 2.676811e+12
2.511307e+04, 2.268589e+12
2.513819e+04, 2.227658e+12
2.516332e+04, 2.314280e+12
2.518849e+04, 2.381536e+12
2.521368e+04, 2.364587e+12
2.523889e+04, 2.163943e+12
2.526413e+04, 2.306378e+12
2.528939e+04, 2.168326e+12
2.531468e+04, 2.582052e+12
2.534000e+04, 2.220513e+12
2.536534e+04, 1.922952e+12
2.539070e+04, 2.183285e+12
2.541609e+04, 2.249991e+12
2.544151e+04, 2.008807e+12
2.546695e+04, 2.239788e+12
2.549242e+04, 2.015763e+12
2.551791e+04, 2.285281e+12
2.554343e+04, 2.188648e+12
2.556897e+04, 2.180220e+12
2.559454e+04, 2.154662e+12
2.562014e+04, 1.886982e+12
2.564576e+04, 2.188932e+12
2.567140e+04, 2.020787e+12
2.569707e+04, 2.169836e+12
2.572277e+04, 2.476361e+12
2.574849e+04, 1.950006e+12
2.577424e+04, 1.720350e+12
2.580002e+04, 2.398213e+12
2.582582e+04, 2.024902e+12
2.585164e+04, 2.273987e+12
2.587749e+04, 2.074161e+12
2.590337e+04, 2.117195e+12
2.592927e+04, 2.204373e+12
2.595520e+04, 1.959328e+12
2.598116e+04, 1.998685e+12
2.600714e+04, 2.235250e+12
2.603315e+04, 2.246386e+12
2.605918e+04, 2.352956e+12
2.608524e+04, 1.863691e+12
2.611132e+04, 2.586796e+12
2.613744e+04, 2.216665e+12
2.616357e+04, 2.255320e+12
2.618974e+04, 2.055615e+12
2.621593e+04, 2.188865e+12
2.624214e+04, 2.315740e+12
2.626838e+04, 2.118356e+12
2.629465e+04, 2.171661e+12
2.632095e+04, 2.233029e+12
2.634727e+04, 2.053620e+12
2.637362e+04, 2.428035e+12
2.639999e+04, 2.135958e+12
2.642639e+04, 2.206275e+12
2.645282e+04, 2.097802e+12
2.647927e+04, 2.217859e+12
2.650575e+04, 2.376001e+12
2.653225e+04, 2.278490e+12
2.655879e+04, 2.251851e+12
2.658534e+04, 2.598827e+12
2.661193e+04, 2.399766e+12
2.663854e+04, 2.201266e+12
2.666518e+04, 2.143551e+12
2.669185e+04, 2.082441e+12
2.671854e+04, 2.331016e+12
2.674526e+04, 2.168090e+12
2.677200e+04, 1.685032e+12
2.679877e+04, 2.261836e+12
2.682557e+04, 2.085252e+12
2.685240e+04, 1.778684e+12
2.687925e+04, 2.164205e+12
2.690613e+04, 2.258409e+12
2.693303e+04, 1.700164e+12
2.695997e+04, 1.703624e+12
2.698693e+04, 2.038584e+12
2.701391e+04, 2.076362e+12
2.704093e+04, 1.764003e+12
2.706797e+04, 1.956739e+12
2.709504e+04, 1.874837e+12
2.712213e+04, 1.601877e+12
2.714925e+04, 1.888267e+12
2.717640e+04, 1.815747e+12
2.720358e+04, 1.828576e+12
2.723078e+04, 1.754807e+12
2.725801e+04, 1.752184e+12
2.728527e+04, 1.624061e+12
2.731256e+04, 2.088217e+12
2.733987e+04, 2.016803e+12
2.736721e+04, 1.551891e+12
2.739458e+04, 1.519613e+12
2.742197e+04, 1.848942e+12
2.744939e+04, 1.809215e+12
2.747684e+04, 1.900498e+12
2.750432e+04, 1.735967e+12
2.753182e+04, 1.741038e+12
2.755936e+04, 1.698244e+12
2.758692e+04, 1.851498e+12
2.761450e+04, 1.886624e+12
2.764212e+04, 1.745631e+12
2.766976e+04, 1.508607e+12
2.769743e+04, 1.620680e+12
2.772513e+04, 1.726357e+12
2.775285e+04, 1.964199e+12
2.778060e+04, 1.626659e+12
2.780839e+04, 1.658571e+12
2.783619e+04, 1.832131e+12
2.786403e+04, 1.412124e+12
2.789189e+04, 1.602542e+12
2.791979e+04, 1.711811e+12
2.794771e+04, 1.917536e+12
2.797565e+04, 1.750007e+12
2.800363e+04, 1.760219e+12
2.803163e+04, 1.367295e+12
2.805966e+04, 1.515938e+12
2.808772e+04, 1.797482e+12
2.811581e+04, 1.921566e+12
2.814393e+04, 1.559249e+12
2.817207e+04, 1.618171e+12
2.820024e+04, 1.302553e+12
2.822844e+04, 1.702933e+12
2.825667e+04, 1.663259e+12
2.828493e+04, 1.758319e+12
2.831321e+04, 1.833086e+12
2.834153e+04, 1.565009e+12
2.836987e+04, 1.314995e+12
2.839824e+04, 1.675553e+12
2.842664e+04, 1.677937e+12
2.845506e+04, 1.641696e+12
2.848352e+04, 1.671439e+12
2.851200e+04, 1.611424e+12
2.854051e+04, 1.293817e+12
2.856905e+04, 1.438829e+12
2.859762e+04, 1.930851e+12
2.862622e+04, 1.679171e+12
2.865485e+04, 1.583893e+12
2.868350e+04, 1.554498e+12
2.871219e+04, 1.442471e+12
2.874090e+04, 1.393063e+12
2.876964e+04, 1.813840e+12
2.879841e+04, 1.653096e+12
2.882721e+04, 1.661236e+12
2.885603e+04, 1.509187e+12
2.888489e+04, 1.458973e+12
2.891377e+04, 1.382721e+12
2.894269e+04, 1.845400e+12
2.897163e+04, 1.780544e+12
2.900060e+04, 1.345744e+12
2.902960e+04, 1.581609e+12
2.905863e+04, 1.609867e+12
2.908769e+04, 1.113099e+12
2.911678e+04, 1.647975e+12
2.914590e+04, 1.654281e+12
2.917504e+04, 1.557764e+12
2.920422e+04, 1.426035e+12
2.923342e+04, 1.423990e+12
2.926265e+04, 1.546843e+12
2.929192e+04, 1.266421e+12
2.932121e+04, 1.660237e+12
2.935053e+04, 1.652401e+12
2.937988e+04, 1.642386e+12
2.940926e+04, 1.331981e+12
2.943867e+04, 1.440708e+12
2.946811e+04, 1.431795e+12
2.949758e+04, 1.411367e+12
2.952707e+04, 1.552599e+12
2.955660e+04, 1.401292e+12
2.958616e+04, 1.593298e+12
2.961574e+04, 1.506589e+12
2.964536e+04, 1.525073e+12
2.967501e+04, 1.268146e+12
2.970468e+04, 1.502750e+12
2.973439e+04, 1.519934e+12
2.976412e+04, 1.588333e+12
2.979388e+04, 1.547447e+12
2.982368e+04, 1.451961e+12
2.985350e+04, 1.505031e+12
2.988335e+04, 1.204721e+12
2.991324e+04, 1.523563e+12
2.994315e+04, 1.597831e+12
2.997309e+04, 1.517112e+12
3.000307e+04, 1.595405e+12
3.003307e+04, 1.462488e+12
3.006310e+04, 1.328801e+12
3.009317e+04, 1.229490e+12
3.012326e+04, 1.463843e+12
3.015338e+04, 1.725188e+12
3.018354e+04, 1.585441e+12
3.021372e+04, 1.382548e+12
3.024393e+04, 1.478505e+12
3.027418e+04, 1.462560e+12
3.030445e+04, 1.328024e+12
3.033476e+04, 1.564383e+12
3.036509e+04, 1.507219e+12
3.039546e+04, 1.582723e+12
3.042585e+04, 1.497016e+12
3.045628e+04, 1.343386e+12
3.048673e+04, 1.355380e+12
3.051722e+04, 1.293111e+12
3.054774e+04, 1.701694e+12
3.057829e+04, 1.499290e+12
3.060886e+04, 1.506696e+12
3.063947e+04, 1.537538e+12
3.067011e+04, 1.543244e+12
3.070078e+04, 1.341536e+12
3.073148e+04, 1.336412e+12
3.076221e+04, 1.480469e+12
3.079298e+04, 1.709703e+12
3.082377e+04, 1.482127e+12
3.085459e+04, 1.544205e+12
3.088545e+04, 1.363367e+12
3.091633e+04, 1.436146e+12
3.094725e+04, 1.383119e+12
3.097820e+04, 1.422053e+12
3.100918e+04, 1.693283e+12
3.104018e+04, 1.570777e+12
3.107122e+04, 1.483121e+12
3.110230e+04, 1.433584e+12
3.113340e+04, 1.378875e+12
3.116453e+04, 1.554816e+12
3.119570e+04, 1.463847e+12
3.122689e+04, 1.502214e+12
3.125812e+04, 1.660451e+12
3.128938e+04, 1.407632e+12
3.132067e+04, 1.383639e+12
3.135199e+04, 1.565603e+12
3.138334e+04, 1.506728e+12
3.141472e+04, 1.549697e+12
3.144614e+04, 1.425993e+12
3.147758e+04, 1.509403e+12
3.150906e+04, 1.576278e+12
3.154057e+04, 1.439971e+12
3.157211e+04, 1.390835e+12
3.160368e+04, 1.538395e+12
3.163529e+04, 1.618348e+12
3.166692e+04, 1.420760e+12
3.169859e+04, 1.516215e+12
3.173029e+04, 1.495330e+12
3.176202e+04, 1.436548e+12
3.179378e+04, 1.431803e+12
3.182557e+04, 1.640857e+12
3.185740e+04, 1.484059e+12
3.188926e+04, 1.491084e+12
3.192115e+04, 1.599600e+12
3.195307e+04, 1.434305e+12
3.198502e+04, 1.460004e+12
3.201700e+04, 1.376761e+12
3.204902e+04, 1.471021e+12
3.208107e+04, 1.626558e+12
3.211315e+04, 1.519913e+12
3.214526e+04, 1.576847e+12
3.217741e+04, 1.461259e+12
3.220959e+04, 1.557752e+12
3.224180e+04, 1.482114e+12
3.227404e+04, 1.432346e+12
3.230631e+04, 1.620506e+12
3.233862e+04, 1.575822e+12
3.237096e+04, 1.529923e+12
3.240333e+04, 1.488427e+12
3.243573e+04, 1.469547e+12
3.246817e+04, 1.520191e+12
3.250064e+04, 1.530277e+12
3.253314e+04, 1.521959e+12
3.256567e+04, 1.637907e+12
3.259824e+04, 1.645606e+12
3.263083e+04, 1.611821e+12
3.266346e+04, 1.556019e+12
3.269613e+04, 1.471726e+12
3.272882e+04, 1.583050e+12
3.276155e+04, 1.508391e+12
3.279431e+04, 1.479789e+12
3.282711e+04, 1.530853e+12
3.285994e+04, 1.523000e+12
3.289280e+04, 1.589291e+12
3.292569e+04, 1.501303e+12
3.295861e+04, 1.543771e+12
3.299157e+04, 1.488175e+12
3.302456e+04, 1.578445e+12
3.305759e+04, 1.580095e+12
3.309065e+04, 1.543465e+12
3.312374e+04, 1.562137e+12
3.315686e+04, 1.486157e+12
3.319002e+04, 1.482615e+12
3.322321e+04, 1.577969e+12
3.325643e+04, 1.583573e+12
3.328969e+04, 1.666489e+12
3.332298e+04, 1.648809e+12
3.335630e+04, 1.564848e+12
3.338966e+04, 1.433083e+12
3.342305e+04, 1.585319e+12
3.345647e+04, 1.519441e+12
3.348993e+04, 1.574293e+12
3.352342e+04, 1.633567e+12
3.355694e+04, 1.409819e+12
3.359050e+04, 1.582305e+12
3.362409e+04, 1.541874e+12
3.365771e+04, 1.587199e+12
3.369137e+04, 1.571749e+12
3.372506e+04, 1.545322e+12
3.375878e+04, 1.486885e+12
3.379254e+04, 1.487770e+12
3.382634e+04, 1.572707e+12
3.386016e+04, 1.564258e+12
3.389402e+04, 1.598990e+12
3.392792e+04, 1.560477e+12
3.396184e+04, 1.535082e+12
3.399581e+04, 1.508867e+12
3.402980e+04, 1.538250e+12
3.406383e+04, 1.603618e+12
3.409790e+04, 1.501993e+12
3.413199e+04, 1.501278e+12
3.416613e+04, 1.482909e+12
3.420029e+04, 1.504009e+12
3.423449e+04, 1.566526e+12
3.426873e+04, 1.567538e+12
3.430300e+04, 1.546944e+12
3.433730e+04, 1.577555e+12
3.437164e+04, 1.550448e+12
3.440601e+04, 1.538504e+12
3.444041e+04, 1.430820e+12
3.447485e+04, 1.530234e+12
3.450933e+04, 1.619106e+12
3.454384e+04, 1.560990e+12
3.457838e+04, 1.431822e+12
3.461296e+04, 1.517557e+12
3.464757e+04, 1.543669e+12
3.468222e+04, 1.615864e+12
3.471690e+04, 1.619903e+12
3.475162e+04, 1.568825e+12
3.478637e+04, 1.555260e+12
3.482116e+04, 1.451115e+12
3.485598e+04, 1.521106e+12
3.489083e+04, 1.510496e+12
3.492573e+04, 1.421837e+12
3.496065e+04, 1.603447e+12
3.499561e+04, 1.431509e+12
3.503061e+04, 1.615148e+12
3.506564e+04, 1.585638e+12
3.510070e+04, 1.536291e+12
3.513580e+04, 1.618821e+12
3.517094e+04, 1.482512e+12
3.520611e+04, 1.407265e+12
3.524132e+04, 1.522204e+12
3.527656e+04, 1.437460e+12
3.531184e+04, 1.612924e+12
3.534715e+04, 1.577750e+12
3.538249e+04, 1.448207e+12
3.541788e+04, 1.568909e+12
3.545329e+04, 1.384151e+12
3.548875e+04, 1.581939e+12
3.552424e+04, 1.481186e+12
3.555976e+04, 1.518121e+12
3.559532e+04, 1.511752e+12
3.563092e+04, 1.500467e+12
3.566655e+04, 1.562195e+12
3.570221e+04, 1.459992e+12
3.573792e+04, 1.468613e+12
3.577365e+04, 1.449948e+12
3.580943e+04, 1.549778e+12
3.584524e+04, 1.494209e+12
3.588108e+04, 1.531232e+12
3.591696e+04, 1.527741e+12
3.595288e+04, 1.536180e+12
3.598883e+04, 1.462254e+12
3.602482e+04, 1.389485e+12
3.606085e+04, 1.546877e+12
3.609691e+04, 1.531536e+12
3.613300e+04, 1.482770e+12
3.616914e+04, 1.449539e+12
3.620531e+04, 1.493714e+12
3.624151e+04, 1.459435e+12
3.627775e+04, 1.552966e+12
3.631403e+04, 1.523167e+12
3.635035e+04, 1.352409e+12
3.638670e+04, 1.457598e+12
3.642308e+04, 1.514057e+12
3.645951e+04, 1.542226e+12
3.649596e+04, 1.461818e+12
3.653246e+04, 1.429858e+12
3.656899e+04, 1.460108e+12
3.660556e+04, 1.421600e+12
3.664217e+04, 1.403004e+12
3.667881e+04, 1.484361e+12
3.671549e+04, 1.494948e+12
3.675220e+04, 1.431596e+12
3.678896e+04, 1.395052e+12
3.682575e+04, 1.499037e+12
3.686257e+04, 1.502467e+12
3.689943e+04, 1.452730e+12
3.693633e+04, 1.457465e+12
3.697327e+04, 1.466278e+12
3.701024e+04, 1.360266e+12
3.704725e+04, 1.494029e+12
3.708430e+04, 1.351520e+12
3.712138e+04, 1.530735e+12
3.715851e+04, 1.450820e+12
3.719566e+04, 1.463417e+12
3.723286e+04, 1.486047e+12
3.727009e+04, 1.486133e+12
3.730736e+04, 1.479161e+12
3.734467e+04, 1.308907e+12
3.738202e+04, 1.374926e+12
3.741940e+04, 1.414457e+12
3.745682e+04, 1.439691e+12
3.749427e+04, 1.484332e+12
3.753177e+04, 1.480521e+12
3.756930e+04, 1.457559e+12
3.760687e+04, 1.472423e+12
3.764448e+04, 1.424245e+12
3.768212e+04, 1.468913e+12
3.771980e+04, 1.261890e+12
3.775752e+04, 1.482545e+12
3.779528e+04, 1.471043e+12
3.783307e+04, 1.453716e+12
3.787091e+04, 1.441915e+12
3.790878e+04, 1.440929e+12
3.794669e+04, 1.453512e+12
3.798463e+04, 1.442346e+12
3.802262e+04, 1.473917e+12
3.806064e+04, 1.347909e+12
3.809870e+04, 1.287634e+12
3.813680e+04, 1.444742e+12
3.817494e+04, 1.433124e+12
3.821311e+04, 1.427272e+12
3.825133e+04, 1.408021e+12
3.828958e+04, 1.367731e+12
3.832787e+04, 1.419861e+12
3.836619e+04, 1.379774e+12
3.840456e+04, 1.366608e+12
3.844297e+04, 1.423243e+12
3.848141e+04, 1.256319e+12
3.851989e+04, 1.353290e+12
3.855841e+04, 1.422440e+12
3.859697e+04, 1.460592e+12
3.863556e+04, 1.391372e+12
3.867420e+04, 1.363134e+12
3.871287e+04, 1.378007e+12
3.875159e+04, 1.357846e+12
3.879034e+04, 1.346320e+12
3.882913e+04, 1.416356e+12
3.886796e+04, 1.287086e+12
3.890683e+04, 1.272861e+12
3.894573e+04, 1.375508e+12
3.898468e+04, 1.342323e+12
3.902366e+04, 1.378030e+12
3.906269e+04, 1.362811e+12
3.910175e+04, 1.324336e+12
3.914085e+04, 1.272941e+12
3.917999e+04, 1.356227e+12
3.921917e+04, 1.339952e+12
3.925839e+04, 1.332424e+12
3.929765e+04, 1.270305e+12
3.933695e+04, 1.281904e+12
3.937628e+04, 1.340864e+12
3.941566e+04, 1.306161e+12
3.945508e+04, 1.313739e+12
3.949453e+04, 1.302774e+12
3.953403e+04, 1.287724e+12
3.957356e+04, 1.272043e+12
3.961313e+04, 1.314483e+12
3.965275e+04, 1.239845e+12
3.969240e+04, 1.261309e+12
3.973209e+04, 1.207908e+12
3.977182e+04, 1.200765e+12
3.981160e+04, 1.217926e+12
3.985141e+04, 1.256124e+12
3.989126e+04, 1.234414e+12
3.993115e+04, 1.223522e+12
3.997108e+04, 1.219895e+12
4.001105e+04, 1.180864e+12
4.005106e+04, 1.149418e+12
4.009111e+04, 1.162562e+12
4.013121e+04, 1.170049e+12
4.017134e+04, 1.144024e+12
4.021151e+04, 1.104775e+12
4.025172e+04, 1.132104e+12
4.029197e+04, 1.120260e+12
4.033226e+04, 1.151399e+12
4.037260e+04, 1.179543e+12
4.041297e+04, 1.094744e+12
4.045338e+04, 1.048660e+12
4.049383e+04, 1.045852e+12
4.053433e+04, 1.104816e+12
4.057486e+04, 1.094770e+12
4.061544e+04, 1.006305e+12
4.065605e+04, 1.069665e+12
4.069671e+04, 1.074250e+12
4.073741e+04, 1.046321e+12
4.077814e+04, 1.011654e+12
4.081892e+04, 1.017545e+12
4.085974e+04, 9.467156e+11
4.090060e+04, 9.752392e+11
4.094150e+04, 1.007287e+12
4.098244e+04, 9.898956e+11
4.102342e+04, 9.993815e+11
4.106445e+04, 1.038914e+12
4.110551e+04, 9.503549e+11
4.114662e+04, 9.884827e+11
4.118776e+04, 9.392664e+11
4.122895e+04, 9.674158e+11
4.127018e+04, 9.638669e+11
4.131145e+04, 8.948542e+11
4.135276e+04, 1.008296e+12
4.139412e+04, 9.079659e+11
4.143551e+04, 9.497302e+11
4.147695e+04, 9.790894e+11
4.151842e+04, 9.871313e+11
4.155994e+04, 8.988461e+11
4.160150e+04, 9.028456e+11
4.164310e+04, 8.772208e+11
4.168475e+04, 8.856139e+11
4.172643e+04, 8.859322e+11
4.176816e+04, 9.085593e+11
4.180992e+04, 9.347888e+11
4.185173e+04, 8.389200e+11
4.189359e+04, 9.097873e+11
4.193548e+04, 9.157320e+11
4.197742e+04, 8.794132e+11
4.201939e+04, 9.150167e+11
4.206141e+04, 8.805849e+11
4.210347e+04, 8.770347e+11
4.214558e+04, 7.958485e+11
4.218772e+04, 8.538244e+11
4.222991e+04, 8.458323e+11
4.227214e+04, 8.850055e+11
4.231441e+04, 8.719098e+11
4.235673e+04, 8.986257e+11
4.239908e+04, 8.400672e+11
4.244148e+04, 8.143363e+11
4.248392e+04, 8.194580e+11
4.252641e+04, 7.647234e+11
4.256893e+04, 8.270256e+11
4.261150e+04, 8.226176e+11
4.265411e+04, 8.166429e+11
4.269677e+04, 8.187354e+11
4.273947e+04, 7.776701e+11
4.278221e+04, 8.567202e+11
4.282499e+04, 7.884761e+11
4.286781e+04, 8.469453e+11
4.291068e+04, 8.048235e+11
4.295359e+04, 7.410646e+11
4.299654e+04, 7.738765e+11
4.303954e+04, 7.181433e+11
4.308258e+04, 7.475768e+11
4.312566e+04, 7.555194e+11
4.316879e+04, 7.421902e+11
4.321196e+04, 7.617226e+11
4.325517e+04, 7.411529e+11
4.329842e+04, 7.339907e+11
4.334172e+04, 7.488239e+11
4.338506e+04, 6.906717e+11
4.342845e+04, 7.092255e+11
4.347188e+04, 7.145357e+11
4.351535e+04, 6.925583e+11
4.355887e+04, 6.777218e+11
4.360242e+04, 7.240107e+11
4.364603e+04, 6.982421e+11
4.368967e+04, 6.521997e+11
4.373336e+04, 6.741892e+11
4.377710e+04, 6.661833e+11
4.382087e+04, 6.548803e+11
4.386469e+04, 6.646385e+11
4.390856e+04, 7.109342e+11
4.395247e+04, 6.361164e+11
4.399642e+04, 6.360872e+11
4.404042e+04, 6.305543e+11
4.408446e+04, 6.428454e+11
4.412854e+04, 6.537568e+11
4.417267e+04, 6.270823e+11
4.421684e+04, 6.163198e+11
4.426106e+04, 6.081379e+11
4.430532e+04, 5.994626e+11
4.434963e+04, 5.501592e+11
4.439398e+04, 5.749805e+11
4.443837e+04, 6.250462e+11
4.448281e+04, 6.127508e+11
4.452729e+04, 6.372309e+11
4.457182e+04, 5.781585e+11
4.461639e+04, 6.072088e+11
4.466101e+04, 5.603594e+11
4.470567e+04, 5.632104e+11
4.475037e+04, 6.371165e+11
4.479512e+04, 5.475720e+11
4.483992e+04, 6.022439e+11
4.488476e+04, 5.747270e+11
4.492964e+04, 5.735631e+11
4.497457e+04, 5.829779e+11
4.501955e+04, 5.763219e+11
4.506457e+04, 5.255670e+11
4.510963e+04, 5.648973e+11
4.515474e+04, 5.883876e+11
4.519990e+04, 5.160136e+11
4.524510e+04, 5.701367e+11
4.529034e+04, 5.741990e+11
4.533563e+04, 4.978092e+11
4.538097e+04, 5.698129e+11
4.542635e+04, 5.613826e+11
4.547177e+04, 5.087415e+11
4.551725e+04, 5.084155e+11
4.556276e+04, 5.689305e+11
4.560833e+04, 5.315520e+11
4.565393e+04, 5.125467e+11
4.569959e+04, 5.196573e+11
4.574529e+04, 5.016015e+11
4.579103e+04, 5.316051e+11
4.583682e+04, 5.333736e+11
4.588266e+04, 4.865236e+11
4.592854e+04, 5.484194e+11
4.597447e+04, 5.047935e+11
4.602045e+04, 5.247943e+11
4.606647e+04, 5.435942e+11
4.611253e+04, 5.301012e+11
4.615865e+04, 4.387123e+11
4.620480e+04, 5.443631e+11
4.625101e+04, 4.562702e+11
4.629726e+04, 5.467289e+11
4.634356e+04, 5.206264e+11
4.638990e+04, 4.712818e+11
4.643629e+04, 5.015296e+11
4.648273e+04, 4.819590e+11
4.652921e+04, 4.837798e+11
4.657574e+04, 5.188430e+11
4.662231e+04, 4.934298e+11
4.666894e+04, 5.063356e+11
4.671561e+04, 4.969151e+11
4.676232e+04, 5.039136e+11
4.680908e+04, 4.510592e+11
4.685589e+04, 5.211386e+11
4.690275e+04, 4.611732e+11
4.694965e+04, 5.343162e+11
4.699660e+04, 4.784757e+11
4.704360e+04, 5.189982e+11
4.709064e+04, 4.399204e+11
4.713773e+04, 4.960115e+11
4.718487e+04, 4.449069e+11
4.723205e+04, 5.172854e+11
4.727929e+04, 4.457018e+11
4.732657e+04, 4.791532e+11
4.737389e+04, 4.714094e+11
4.742127e+04, 4.972253e+11
4.746869e+04, 4.712609e+11
4.751616e+04, 4.748051e+11
4.756367e+04, 4.628936e+11
4.761124e+04, 4.634510e+11
4.765885e+04, 4.181710e+11
4.770651e+04, 4.935415e+11
4.775421e+04, 4.200765e+11
4.780197e+04, 4.571171e+11
4.784977e+04, 4.105914e+11
4.789762e+04, 4.933205e+11
4.794552e+04, 4.009923e+11
4.799346e+04, 5.096779e+11
4.804146e+04, 4.281197e+11
4.808950e+04, 4.657261e+11
4.813759e+04, 3.824670e+11
4.818572e+04, 4.718301e+11
4.823391e+04, 4.558841e+11
4.828214e+04, 4.868513e+11
4.833043e+04, 4.278626e+11
4.837876e+04, 4.501546e+11
4.842713e+04, 4.035697e+11
4.847556e+04, 4.774899e+11
4.852404e+04, 4.155249e+11
4.857256e+04, 4.449564e+11
4.862113e+04, 4.538799e+11
4.866976e+04, 4.161384e+11
4.871842e+04, 4.223365e+11
4.876714e+04, 4.044319e+11
4.881591e+04, 4.737400e+11
4.886473e+04, 3.987280e+11
4.891359e+04, 4.482982e+11
4.896250e+04, 3.777844e+11
4.901147e+04, 4.727696e+11
4.906048e+04, 4.236210e+11
4.910954e+04, 4.241273e+11
4.915865e+04, 4.297601e+11
4.920781e+04, 4.354823e+11
4.925702e+04, 3.838360e+11
4.930627e+04, 4.002790e+11
4.935558e+04, 3.826262e+11
4.940493e+04, 4.458335e+11
4.945434e+04, 4.158826e+11
4.950379e+04, 3.878976e+11
4.955330e+04, 3.761136e+11
4.960285e+04, 3.899462e+11
4.965245e+04, 3.945230e+11
4.970211e+04, 3.530303e+11
4.975181e+04, 4.580467e+11
4.980156e+04, 3.900788e+11
4.985136e+04, 4.398587e+11
4.990121e+04, 3.735909e+11
4.995111e+04, 3.758168e+11
5.000106e+04, 3.739314e+11
5.005107e+04, 4.003110e+11
5.010112e+04, 3.853807e+11
5.015122e+04, 3.725988e+11
5.020137e+04, 3.278014e+11
5.025157e+04, 3.598088e+11
5.030182e+04, 3.573376e+11
5.035212e+04, 3.980613e+11
5.040248e+04, 3.579442e+11
5.045288e+04, 3.496933e+11
5.050333e+04, 4.349808e+11
5.055383e+04, 3.589785e+11
5.060439e+04, 3.600734e+11
5.065499e+04, 3.508690e+11
5.070565e+04, 3.985968e+11
5.075635e+04, 3.823800e+11
5.080711e+04, 3.110834e+11
5.085792e+04, 3.670171e+11
5.090878e+04, 3.581865e+11
5.095968e+04, 3.755613e+11
5.101064e+04, 3.967690e+11
5.106165e+04, 3.339846e+11
5.111272e+04, 3.436346e+11
5.116383e+04, 3.568339e+11
5.121499e+04, 3.572246e+11
5.126621e+04, 3.341385e+11
5.131747e+04, 3.163395e+11
5.136879e+04, 3.789013e+11
5.142016e+04, 3.312686e+11
5.147158e+04, 3.044171e+11
5.152305e+04, 3.882815e+11
5.157457e+04, 3.417248e+11
5.162615e+04, 3.209537e+11
5.167778e+04, 3.279162e+11
5.172945e+04, 3.199227e+11
5.178118e+04, 3.516753e+11
5.183296e+04, 3.431002e+11
5.188480e+04, 3.530545e+11
5.193668e+04, 3.441258e+11
5.198862e+04, 3.113581e+11
5.204061e+04, 3.231610e+11
5.209265e+04, 3.464180e+11
5.214474e+04, 3.420823e+11
5.219688e+04, 3.271379e+11
5.224908e+04, 3.198017e+11
5.230133e+04, 3.334912e+11
5.235363e+04, 3.453031e+11
5.240599e+04, 2.899850e+11
5.245839e+04, 3.257889e+11
5.251085e+04, 3.324444e+11
5.256336e+04, 3.114465e+11
5.261592e+04, 3.679474e+11
5.266854e+04, 3.234723e+11
5.272121e+04, 3.147121e+11
5.277393e+04, 2.851144e+11
5.282670e+04, 2.972406e+11
5.287953e+04, 3.209676e+11
5.293241e+04, 3.014535e+11
5.298534e+04, 3.088157e+11
5.303833e+04, 3.358769e+11
5.309137e+04, 2.958950e+11
5.314446e+04, 3.341497e+11
5.319760e+04, 2.748310e+11
5.325080e+04, 3.225201e+11
5.330405e+04, 3.297871e+11
5.335735e+04, 3.181631e+11
5.341071e+04, 3.015896e+11
5.346412e+04, 2.762694e+11
5.351759e+04, 2.812241e+11
5.357110e+04, 3.240775e+11
5.362468e+04, 3.001576e+11
5.367830e+04, 2.988303e+11
5.373198e+04, 3.130292e+11
5.378571e+04, 2.918813e+11
5.383950e+04, 3.180618e+11
5.389334e+04, 2.707150e+11
5.394723e+04, 3.078356e+11
5.400118e+04, 3.173794e+11
5.405518e+04, 2.807177e+11
5.410923e+04, 2.686112e+11
5.416334e+04, 2.745972e+11
5.421751e+04, 2.652100e+11
5.427172e+04, 2.809843e+11
5.432599e+04, 2.818817e+11
5.438032e+04, 2.759492e+11
5.443470e+04, 2.950024e+11
5.448914e+04, 2.901850e+11
5.454362e+04, 2.754093e+11
5.459817e+04, 2.922468e+11
5.465277e+04, 2.706335e+11
5.470742e+04, 2.854170e+11
5.476213e+04, 2.710073e+11
5.481689e+04, 2.885485e+11
5.487171e+04, 2.775341e+11
5.492658e+04, 2.731814e+11
5.498150e+04, 3.016371e+11
5.503649e+04, 2.801933e+11
5.509152e+04, 2.714935e+11
5.514661e+04, 2.697247e+11
5.520176e+04, 2.585254e+11
5.525696e+04, 2.498416e+11
5.531222e+04, 2.540684e+11
5.536753e+04, 2.840598e+11
5.542290e+04, 2.799319e+11
5.547832e+04, 2.488673e+11
5.553380e+04, 2.688478e+11
5.558933e+04, 2.566057e+11
5.564492e+04, 2.448028e+11
5.570057e+04, 2.661095e+11
5.575627e+04, 2.653138e+11
5.581202e+04, 2.452775e+11
5.586784e+04, 2.538648e+11
5.592370e+04, 2.723834e+11
5.597963e+04, 2.853656e+11
5.603561e+04, 2.566556e+11
5.609164e+04, 2.661656e+11
5.614774e+04, 2.535689e+11
5.620388e+04, 2.461769e+11
5.626009e+04, 2.654121e+11
5.631635e+04, 2.475543e+11
5.637266e+04, 2.856559e+11
5.642904e+04, 2.497318e+11
5.648546e+04, 2.475911e+11
5.654195e+04, 2.283154e+11
5.659849e+04, 2.645372e+11
5.665509e+04, 2.354253e+11
5.671175e+04, 2.788693e+11
5.676846e+04, 2.346722e+11
5.682523e+04, 2.429924e+11
5.688205e+04, 2.454806e+11
5.693893e+04, 2.376924e+11
5.699587e+04, 2.477185e+11
5.705287e+04, 2.691004e+11
5.710992e+04, 2.199778e+11
5.716703e+04, 2.320885e+11
5.722420e+04, 2.348129e+11
5.728142e+04, 2.362467e+11
5.733870e+04, 2.090123e+11
5.739604e+04, 2.404545e+11
5.745344e+04, 2.497446e+11
5.751089e+04, 2.580638e+11
5.756840e+04, 2.544251e+11
5.762597e+04, 2.261774e+11
5.768360e+04, 2.353251e+11
5.774128e+04, 2.521464e+11
5.779902e+04, 2.064772e+11
5.785682e+04, 2.363919e+11
5.791468e+04, 2.451013e+11
5.797259e+04, 2.205413e+11
5.803056e+04, 2.495654e+11
5.808860e+04, 2.510966e+11
5.814668e+04, 2.323967e+11
5.820483e+04, 2.178079e+11
5.826304e+04, 2.386022e+11
5.832130e+04, 2.044986e+11
5.837962e+04, 2.205446e+11
5.843800e+04, 2.215411e+11
5.849644e+04, 2.184994e+11
5.855493e+04, 2.251665e+11
5.861349e+04, 2.438795e+11
5.867210e+04, 2.337364e+11
5.873077e+04, 2.164579e+11
5.878951e+04, 2.216372e+11
5.884829e+04, 2.177814e+11
5.890714e+04, 2.496998e+11
5.896605e+04, 2.145710e+11
5.902502e+04, 2.021885e+11
5.908404e+04, 2.314218e+11
5.914313e+04, 2.366440e+11
5.920227e+04, 2.258500e+11
5.926147e+04, 2.433671e+11
5.932073e+04, 2.217957e+11
5.938005e+04, 2.094815e+11
5.943943e+04, 2.183909e+11
5.949887e+04, 2.034344e+11
5.955837e+04, 2.404229e+11
5.961793e+04, 2.224403e+11
5.967755e+04, 2.036610e+11
5.973723e+04, 2.352931e+11
5.979696e+04, 2.253540e+11
5.985676e+04, 2.195418e+11
5.991662e+04, 2.044204e+11
5.997653e+04, 2.346641e+11
6.003651e+04, 2.252307e+11
6.009655e+04, 2.398609e+11
6.015664e+04, 2.147394e+11
6.021680e+04, 2.108238e+11
6.027702e+04, 2.264328e+11
6.033729e+04, 2.021843e+11
6.039763e+04, 2.083358e+11
6.045803e+04, 1.930008e+11
6.051849e+04, 1.980443e+11
6.057900e+04, 2.169438e+11
6.063958e+04, 2.262367e+11
6.070022e+04, 2.256738e+11
6.076092e+04, 2.111814e+11
6.082168e+04, 2.343163e+11
6.088251e+04, 2.237076e+11
6.094339e+04, 2.257408e+11
6.100433e+04, 1.995095e+11
6.106534e+04, 2.136936e+11
6.112640e+04, 1.900930e+11
6.118753e+04, 2.035266e+11
6.124872e+04, 2.219293e+11
6.130996e+04, 2.393991e+11
6.137127e+04, 2.360277e+11
6.143265e+04, 2.041432e+11
6.149408e+04, 2.161142e+11
6.155557e+04, 2.109979e+11
6.161713e+04, 2.075636e+11
6.167874e+04, 2.102573e+11
6.174042e+04, 1.964027e+11
6.180216e+04, 2.228489e+11
6.186397e+04, 2.035220e+11
6.192583e+04, 2.155932e+11
6.198776e+04, 2.116553e+11
6.204974e+04, 2.120302e+11
6.211179e+04, 2.196173e+11
6.217390e+04, 2.014581e+11
6.223608e+04, 2.160326e+11
6.229831e+04, 2.233052e+11
6.236061e+04, 2.088700e+11
6.242297e+04, 1.893097e+11
6.248540e+04, 2.069166e+11
6.254788e+04, 2.186475e+11
6.261043e+04, 1.979586e+11
6.267304e+04, 2.109941e+11
6.273571e+04, 2.031501e+11
6.279845e+04, 1.955656e+11
6.286125e+04, 2.233835e+11
6.292411e+04, 2.010934e+11
6.298703e+04, 2.010705e+11
6.305002e+04, 2.176392e+11
6.311307e+04, 2.079289e+11
6.317618e+04, 1.902550e+11
6.323936e+04, 2.022209e+11
6.330260e+04, 2.099524e+11
6.336590e+04, 1.952935e+11
6.342927e+04, 1.907512e+11
6.349270e+04, 2.008635e+11
6.355619e+04, 1.752008e+11
6.361975e+04, 2.038656e+11
6.368337e+04, 2.039491e+11
6.374705e+04, 1.918425e+11
6.381080e+04, 1.848726e+11
6.387461e+04, 1.681943e+11
6.393848e+04, 1.995724e+11
6.400242e+04, 2.042947e+11
6.406642e+04, 1.741559e+11
6.413049e+04, 1.631507e+11
6.419462e+04, 1.710502e+11
6.425881e+04, 1.997602e+11
6.432307e+04, 1.691847e+11
6.438740e+04, 1.790852e+11
6.445178e+04, 1.801433e+11
6.451623e+04, 1.578746e+11
6.458075e+04, 1.649867e+11
6.464533e+04, 1.791195e+11
6.470998e+04, 1.328448e+11
6.477469e+04, 1.443820e+11
6.483946e+04, 1.408905e+11
6.490430e+04, 1.647012e+11
6.496921e+04, 1.476051e+11
6.503417e+04, 1.405891e+11
6.509921e+04, 1.658368e+11
6.516431e+04, 1.437649e+11
6.522947e+04, 1.535470e+11
6.529470e+04, 1.434324e+11
6.536000e+04, 1.521846e+11
6.542536e+04, 1.445342e+11
6.549078e+04, 1.423039e+11
6.555627e+04, 1.439925e+11
6.562183e+04, 1.326321e+11
6.568745e+04, 1.327702e+11
6.575314e+04, 1.346796e+11
6.581889e+04, 1.523722e+11
6.588471e+04, 1.415898e+11
6.595059e+04, 1.058366e+11
6.601655e+04, 1.316637e+11
6.608256e+04, 1.472189e+11
6.614864e+04, 1.294635e+11
6.621479e+04, 1.132338e+11
6.628101e+04, 1.203076e+11
6.634729e+04, 1.211982e+11
6.641364e+04, 1.214397e+11
6.648005e+04, 1.404777e+11
6.654653e+04, 1.294349e+11
6.661308e+04, 1.273738e+11
6.667969e+04, 1.295795e+11
6.674637e+04, 1.324139e+11
6.681312e+04, 1.209279e+11
6.687993e+04, 1.146767e+11
6.694681e+04, 1.299191e+11
6.701376e+04, 1.330503e+11
6.708077e+04, 1.373547e+11
6.714785e+04, 1.232890e+11
6.721500e+04, 1.256634e+11
6.728221e+04, 1.247100e+11
6.734949e+04, 1.285409e+11
6.741684e+04, 1.310453e+11
6.748426e+04, 1.193764e+11
6.755175e+04, 1.274995e+11
6.761930e+04, 1.325070e+11
6.768692e+04, 1.202207e+11
6.775460e+04, 1.200685e+11
6.782236e+04, 1.165295e+11
6.789018e+04, 1.181973e+11
6.795807e+04, 1.175657e+11
6.802603e+04, 1.260384e+11
6.809405e+04, 1.194599e+11
6.816215e+04, 1.057564e+11
6.823031e+04, 1.194433e+11
6.829854e+04, 1.132001e+11
6.836684e+04, 1.001067e+11
6.843521e+04, 1.305322e+11
6.850364e+04, 1.216964e+11
6.857215e+04, 1.109392e+11
6.864072e+04, 1.150551e+11
6.870936e+04, 1.126333e+11
6.877807e+04, 1.256013e+11
6.884685e+04, 1.105668e+11
6.891569e+04, 1.216464e+11
6.898461e+04, 1.230271e+11
6.905359e+04, 1.084078e+11
6.912265e+04, 1.225660e+11
6.919177e+04, 1.097024e+11
6.926096e+04, 1.147125e+11
6.933022e+04, 1.209256e+11
6.939955e+04, 1.138622e+11
6.946895e+04, 1.176126e+11
6.953842e+04, 1.153804e+11
6.960796e+04, 1.083421e+11
6.967757e+04, 1.112189e+11
6.974724e+04, 1.173371e+11
6.981699e+04, 1.128653e+11
6.988681e+04, 1.210539e+11
6.995670e+04, 1.250526e+11
7.002665e+04, 1.096163e+11
7.009668e+04, 1.008979e+11
7.016678e+04, 1.124011e+11
7.023694e+04, 1.020176e+11
7.030718e+04, 1.077394e+11
7.037749e+04, 1.221647e+11
7.044786e+04, 1.027337e+11
7.051831e+04, 1.016122e+11
7.058883e+04, 1.151818e+11
7.065942e+04, 1.150040e+11
7.073008e+04, 1.027106e+11
7.080081e+04, 1.061118e+11
7.087161e+04, 1.076443e+11
7.094248e+04, 1.032209e+11
7.101342e+04, 1.095731e+11
7.108444e+04, 1.017597e+11
7.115552e+04, 1.077044e+11
7.122668e+04, 9.946798e+10
7.129790e+04, 1.092560e+11
7.136920e+04, 1.050044e+11
7.144057e+04, 1.043914e+11
7.151201e+04, 9.993461e+10
7.158352e+04, 1.159832e+11
7.165511e+04, 1.155004e+11
7.172676e+04, 1.032309e+11
7.179849e+04, 1.118479e+11
7.187029e+04, 1.107200e+11
7.194216e+04, 1.051410e+11
7.201410e+04, 1.036281e+11
7.208611e+04, 1.013777e+11
7.215820e+04, 1.043082e+11
7.223036e+04, 1.043348e+11
7.230259e+04, 1.029096e+11
7.237489e+04, 1.003358e+11
7.244727e+04, 1.041152e+11
7.251971e+04, 1.059172e+11
7.259223e+04, 9.905960e+10
7.266482e+04, 1.091835e+11
7.273749e+04, 9.514989e+10
7.281023e+04, 1.051843e+11
7.288304e+04, 1.022775e+11
7.295592e+04, 9.467276e+10
7.302888e+04, 9.642195e+10
7.310191e+04, 1.053796e+11
7.317501e+04, 1.052477e+11
7.324818e+04, 1.034609e+11
7.332143e+04, 9.092308e+10
7.339475e+04, 9.363852e+10
7.346815e+04, 9.165077e+10
7.354161e+04, 1.000109e+11
7.361516e+04, 9.446154e+10
7.368877e+04, 1.000452e+11
7.376246e+04, 9.059774e+10
7.383622e+04, 9.577981e+10
7.391006e+04, 1.045013e+11
7.398397e+04, 1.006737e+11
7.405795e+04, 9.836084e+10
7.413201e+04, 9.510074e+10
7.420614e+04, 9.357022e+10
7.428035e+04, 9.397273e+10
7.435463e+04, 8.522090e+10
7.442898e+04, 9.500262e+10
7.450341e+04, 1.021486e+11
7.457792e+04, 9.303367e+10
7.465249e+04, 9.367254e+10
7.472715e+04, 9.179822e+10
7.480187e+04, 9.450065e+10
7.487668e+04, 1.072936e+11
7.495155e+04, 8.867379e+10
7.502650e+04, 9.148365e+10
7.510153e+04, 9.716596e+10
7.517663e+04, 9.395875e+10
7.525181e+04, 9.320459e+10
7.532706e+04, 8.661049e+10
7.540239e+04, 8.771390e+10
7.547779e+04, 9.312292e+10
7.555327e+04, 9.220448e+10
7.562882e+04, 9.901904e+10
7.570445e+04, 8.631899e+10
7.578015e+04, 8.531854e+10
7.585593e+04, 8.202361e+10
7.593179e+04, 9.176941e+10
7.600772e+04, 7.717714e+10
7.608373e+04, 8.167680e+10
7.615981e+04, 7.951875e+10
7.623597e+04, 9.042201e+10
7.631221e+04, 7.931272e+10
7.638852e+04, 8.682718e+10
7.646491e+04, 8.674295e+10
7.654138e+04, 8.457559e+10
7.661792e+04, 8.060458e+10
7.669453e+04, 8.087222e+10
7.677123e+04, 8.448803e+10
7.684800e+04, 8.623152e+10
7.692485e+04, 8.269921e+10
7.700177e+04, 8.416829e+10
7.707877e+04, 7.928979e+10
7.715585e+04, 8.009412e+10
7.723301e+04, 8.283150e+10
7.731024e+04, 8.124840e+10
7.738755e+04, 7.321478e+10
7.746494e+04, 7.371140e+10
7.754241e+04, 8.060283e+10
7.761995e+04, 7.661701e+10
7.769757e+04, 7.516355e+10
7.777527e+04, 8.135187e+10
7.785304e+04, 7.837718e+10
7.793089e+04, 7.979675e+10
7.800882e+04, 7.244426e+10
7.808683e+04, 7.226374e+10
7.816492e+04, 7.645720e+10
7.824308e+04, 8.267957e+10
7.832133e+04, 7.346393e+10
7.839965e+04, 7.974360e+10
7.847805e+04, 8.058162e+10
7.855653e+04, 7.152267e+10
7.863508e+04, 7.292180e+10
7.871372e+04, 6.998100e+10
7.879243e+04, 7.392099e+10
7.887122e+04, 6.667694e+10
7.895010e+04, 6.582314e+10
7.902905e+04, 7.074226e+10
7.910808e+04, 6.993741e+10
7.918718e+04, 7.366331e+10
7.926637e+04, 6.929948e+10
7.934564e+04, 7.490408e+10
7.942498e+04, 7.229089e+10
7.950441e+04, 7.283145e+10
7.958391e+04, 6.682318e+10
7.966350e+04, 6.735230e+10
7.974316e+04, 7.018156e+10
7.982290e+04, 6.545745e+10
7.990273e+04, 6.843131e+10
7.998263e+04, 7.257700e+10
8.006261e+04, 6.832782e+10
8.014267e+04, 7.018259e+10
8.022282e+04, 6.664287e+10
8.030304e+04, 7.362750e+10
8.038334e+04, 6.727549e+10
8.046373e+04, 6.585610e+10
8.054419e+04, 6.731867e+10
8.062473e+04, 6.929449e+10
8.070536e+04, 6.712670e+10
8.078606e+04, 6.616687e+10
8.086685e+04, 7.144063e+10
8.094772e+04, 6.717649e+10
8.102866e+04, 6.269680e+10
8.110969e+04, 6.455102e+10
8.119080e+04, 6.667193e+10
8.127199e+04, 6.508374e+10
8.135326e+04, 7.053915e+10
8.143462e+04, 6.808250e+10
8.151605e+04, 6.562459e+10
8.159757e+04, 6.128572e+10
8.167917e+04, 6.755119e+10
8.176085e+04, 6.768982e+10
8.184261e+04, 6.673334e+10
8.192445e+04, 6.370296e+10
8.200637e+04, 6.213646e+10
8.208838e+04, 6.114881e+10
8.217047e+04, 6.425222e+10
8.225264e+04, 6.415221e+10
8.233489e+04, 6.244530e+10
8.241723e+04, 6.395834e+10
8.249964e+04, 6.599200e+10
8.258214e+04, 6.779931e+10
8.266473e+04, 6.040675e+10
8.274739e+04, 6.440772e+10
8.283014e+04, 5.875290e+10
8.291297e+04, 6.483610e+10
8.299588e+04, 6.414401e+10
8.307888e+04, 6.368100e+10
8.316196e+04, 6.191890e+10
8.324512e+04, 5.781553e+10
8.332836e+04, 5.902075e+10
8.341169e+04, 6.111076e+10
8.349510e+04, 5.984274e+10
8.357860e+04, 6.194363e+10
8.366218e+04, 6.206813e+10
8.374584e+04, 5.640629e+10
8.382958e+04, 5.753323e+10
8.391341e+04, 5.760714e+10
8.399733e+04, 6.386992e+10
8.408132e+04, 6.291690e+10
8.416541e+04, 6.468289e+10
8.424957e+04, 5.834900e+10
8.433382e+04, 6.067796e+10
8.441815e+04, 6.022452e+10
8.450257e+04, 5.819464e+10
8.458708e+04, 5.813811e+10
8.467166e+04, 6.162653e+10
8.475633e+04, 6.101055e+10
8.484109e+04, 5.779504e+10
8.492593e+04, 5.668593e+10
8.501086e+04, 5.421231e+10
8.509587e+04, 5.979361e+10
8.518096e+04, 5.851818e+10
8.526614e+04, 6.070278e+10
8.535141e+04, 5.701988e+10
8.543676e+04, 5.657093e+10
8.552220e+04, 5.802214e+10
8.560772e+04, 5.557975e+10
8.569333e+04, 5.620467e+10
8.577902e+04, 5.835372e+10
8.586480e+04, 5.784587e+10
8.595067e+04, 5.715823e+10
8.603662e+04, 5.943736e+10
8.612265e+04, 5.785843e+10
8.620878e+04, 5.432831e+10
8.629499e+04, 5.482979e+10
8.638128e+04, 5.907337e+10
8.646766e+04, 5.697199e+10
8.655413e+04, 5.505654e+10
8.664068e+04, 5.944743e+10
8.672732e+04, 5.431593e+10
8.681405e+04, 5.233410e+10
8.690087e+04, 5.793833e+10
8.698777e+04, 6.050395e+10
8.707475e+04, 5.445976e+10
8.716183e+04, 5.459935e+10
8.724899e+04, 5.451714e+10
8.733624e+04, 5.153016e+10
8.742358e+04, 5.455342e+10
8.751100e+04, 5.456713e+10
8.759851e+04, 4.934948e+10
8.768611e+04, 5.328064e+10
8.777379e+04, 5.619044e+10
8.786157e+04, 5.280638e+10
8.794943e+04, 5.387332e+10
8.803738e+04, 5.002281e+10
8.812542e+04, 5.297099e+10
8.821354e+04, 5.178419e+10
8.830176e+04, 5.360380e+10
8.839006e+04, 5.122826e+10
8.847845e+04, 5.566527e+10
8.856693e+04, 5.298993e+10
8.865549e+04, 5.244286e+10
8.874415e+04, 5.318810e+10
8.883289e+04, 5.278111e+10
8.892173e+04, 5.260583e+10
8.901065e+04, 5.448216e+10
8.909966e+04, 5.196628e+10
8.918876e+04, 5.066375e+10
8.927795e+04, 5.464116e+10
8.936722e+04, 5.381168e+10
8.945659e+04, 4.896071e+10
8.954605e+04, 5.224283e+10
8.963559e+04, 5.304877e+10
8.972523e+04, 4.943383e+10
8.981496e+04, 4.783289e+10
8.990477e+04, 5.396413e+10
8.999467e+04, 5.058190e+10
9.008467e+04, 5.378743e+10
9.017475e+04, 4.971704e+10
9.026493e+04, 5.067536e+10
9.035519e+04, 4.938317e+10
9.044555e+04, 5.196490e+10
9.053599e+04, 5.294756e+10
9.062653e+04, 4.706790e+10
9.071716e+04, 5.089868e+10
9.080787e+04, 5.249872e+10
9.089868e+04, 4.825936e+10
9.098958e+04, 5.171626e+10
9.108057e+04, 4.878763e+10
9.117165e+04, 5.050548e+10
9.126282e+04, 4.925006e+10
9.135409e+04, 4.898550e+10
9.144544e+04, 5.279498e+10
9.153688e+04, 4.721928e+10
9.162842e+04, 5.086228e+10
9.172005e+04, 4.712828e+10
9.181177e+04, 4.928947e+10
9.190358e+04, 5.033154e+10
9.199549e+04, 4.758036e+10
9.208748e+04, 4.941164e+10
9.217957e+04, 5.058930e+10
9.227175e+04, 4.864367e+10
9.236402e+04, 5.031528e+10
9.245638e+04, 4.659335e+10
9.254884e+04, 4.622309e+10
9.264139e+04, 4.808056e+10
9.273403e+04, 4.749166e+10
9.282676e+04, 4.665369e+10
9.291959e+04, 4.709628e+10
9.301251e+04, 4.703302e+10
9.310552e+04, 4.890747e+10
9.319863e+04, 4.697808e+10
9.329183e+04, 4.775879e+10
9.338512e+04, 4.573130e+10
9.347850e+04, 4.895035e+10
9.357198e+04, 4.822056e+10
9.366556e+04, 4.908358e+10
9.375922e+04, 4.518371e+10
9.385298e+04, 4.706813e+10
9.394683e+04, 4.617299e+10
9.404078e+04, 4.416885e+10
9.413482e+04, 4.521959e+10
9.422896e+04, 4.602062e+10
9.432318e+04, 4.752656e+10
9.441751e+04, 4.141726e+10
9.451192e+04, 4.782914e+10
9.460644e+04, 4.461382e+10
9.470104e+04, 4.762807e+10
9.479574e+04, 4.487831e+10
9.489054e+04, 4.686044e+10
9.498543e+04, 4.303250e+10
9.508042e+04, 4.608260e+10
9.517550e+04, 4.504768e+10
9.527067e+04, 4.503967e+10
9.536594e+04, 4.588910e+10
9.546131e+04, 4.759047e+10
9.555677e+04, 4.619783e+10
9.565233e+04, 4.552916e+10
9.574798e+04, 4.460260e+10
9.584373e+04, 4.359234e+10
9.593957e+04, 4.350682e+10
9.603551e+04, 4.166205e+10
9.613155e+04, 4.415967e+10
9.622768e+04, 4.250538e+10
9.632390e+04, 4.330788e+10
9.642023e+04, 4.232125e+10
9.651665e+04, 4.237202e+10
9.661317e+04, 4.246056e+10
9.670978e+04, 4.410934e+10
9.680649e+04, 4.170420e+10
9.690330e+04, 4.402201e+10
9.700020e+04, 4.244052e+10
9.709720e+04, 4.269633e+10
9.719430e+04, 4.299826e+10
9.729149e+04, 4.335384e+10
9.738878e+04, 4.288924e+10
9.748617e+04, 4.395482e+10
9.758366e+04, 4.214405e+10
9.768124e+04, 4.387849e+10
9.777892e+04, 4.047872e+10
9.787670e+04, 4.244697e+10
9.797458e+04, 4.410277e+10
9.807255e+04, 4.217258e+10
9.817062e+04, 4.043688e+10
9.826879e+04, 4.010394e+10
9.836706e+04, 4.229115e+10
9.846543e+04, 4.190327e+10
9.856390e+04, 3.826525e+10
9.866246e+04, 4.188162e+10
9.876112e+04, 4.418520e+10
9.885988e+04, 3.650794e+10
9.895874e+04, 3.493557e+10
9.905770e+04, 4.068756e+10
9.915676e+04, 3.901416e+10
9.925592e+04, 3.872965e+10
9.935517e+04, 4.093340e+10
9.945453e+04, 4.243678e+10
9.955398e+04, 3.959830e+10
9.965354e+04, 3.977431e+10
9.975319e+04, 4.065955e+10
9.985294e+04, 3.886260e+10
9.995280e+04, 3.868659e+10
1.000527e+05, 4.006125e+10
1.001528e+05, 3.862493e+10
1.002530e+05, 3.975082e+10
1.003532e+05, 3.961265e+10
1.004536e+05, 4.065993e+10
1.005540e+05, 3.823407e+10
1.006546e+05, 3.632443e+10
1.007552e+05, 3.708774e+10
1.008560e+05, 3.617175e+10
1.009568e+05, 3.721765e+10
1.010578e+05, 3.804792e+10
1.011588e+05, 3.681637e+10
1.012600e+05, 3.776778e+10
1.013613e+05, 3.830762e+10
1.014626e+05, 3.752477e+10
1.015641e+05, 3.940382e+10
1.016657e+05, 3.814361e+10
1.017673e+05, 3.630786e+10
1.018691e+05, 3.724820e+10
1.019710e+05, 3.935291e+10
1.020729e+05, 3.742356e+10
1.021750e+05, 3.434357e+10
1.022772e+05, 3.716435e+10
1.023795e+05, 3.595519e+10
1.024818e+05, 3.639277e+10
1.025843e+05, 3.726530e+10
1.026869e+05, 3.520650e+10
1.027896e+05, 3.320899e+10
1.028924e+05, 3.617243e+10
1.029953e+05, 3.624773e+10
1.030983e+05, 3.521775e+10
1.032014e+05, 3.428345e+10
1.033046e+05, 3.319390e+10
1.034079e+05, 3.472491e+10
1.035113e+05, 3.668411e+10
1.036148e+05, 3.286673e+10
1.037184e+05, 3.504744e+10
1.038221e+05, 3.451452e+10
1.039259e+05, 3.609202e+10
1.040299e+05, 3.202217e+10
1.041339e+05, 3.465370e+10
1.042380e+05, 3.134052e+10
1.043423e+05, 3.306479e+10
1.044466e+05, 3.473014e+10
1.045511e+05, 3.321344e+10
1.046556e+05, 3.306785e+10
1.047603e+05, 3.185666e+10
1.048650e+05, 3.231659e+10
1.049699e+05, 3.445010e+10
1.050749e+05, 3.152480e+10
1.051799e+05, 3.373757e+10
1.052851e+05, 3.330150e+10
1.053904e+05, 3.352218e+10
1.054958e+05, 3.255187e+10
1.056013e+05, 3.111847e+10
1.057069e+05, 3.077187e+10
1.058126e+05, 3.127537e+10
1.059184e+05, 3.096887e+10
1.060243e+05, 3.131636e+10
1.061303e+05, 2.874909e+10
1.062365e+05, 3.334555e+10
1.063427e+05, 2.983647e+10
1.064491e+05, 3.212195e+10
1.065555e+05, 3.133535e+10
1.066621e+05, 3.202516e+10
1.067687e+05, 3.131967e+10
1.068755e+05, 3.131811e+10
1.069824e+05, 3.230255e+10
1.070894e+05, 2.832583e+10
1.071964e+05, 3.113653e+10
1.073036e+05, 3.014143e+10
1.074109e+05, 2.989528e+10
1.075184e+05, 2.901868e+10
1.076259e+05, 2.897613e+10
1.077335e+05, 3.011600e+10
1.078412e+05, 2.877707e+10
1.079491e+05, 2.952280e+10
1.080570e+05, 3.187678e+10
1.081651e+05, 2.968259e+10
1.082732e+05, 2.858300e+10
1.083815e+05, 3.180954e+10
1.084899e+05, 2.937484e+10
1.085984e+05, 3.038867e+10
1.087070e+05, 2.897937e+10
1.088157e+05, 2.843079e+10
1.089245e+05, 2.670555e+10
1.090334e+05, 2.732433e+10
1.091425e+05, 2.876559e+10
1.092516e+05, 2.816118e+10
1.093609e+05, 2.639545e+10
1.094702e+05, 2.783889e+10
1.095797e+05, 2.990685e+10
1.096893e+05, 2.616123e+10
1.097990e+05, 2.608414e+10
1.099088e+05, 2.511205e+10
1.100187e+05, 2.803171e+10
1.101287e+05, 2.748026e+10
1.102388e+05, 2.701604e+10
1.103491e+05, 2.743241e+10
1.104594e+05, 2.504574e+10
1.105699e+05, 2.530936e+10
1.106804e+05, 2.668448e+10
1.107911e+05, 2.601125e+10
1.109019e+05, 2.659687e+10
1.110128e+05, 2.733220e+10
1.111238e+05, 2.525584e+10
1.112349e+05, 2.610014e+10
1.113462e+05, 2.551388e+10
1.114575e+05, 2.778237e+10
1.115690e+05, 2.604285e+10
1.116806e+05, 2.549543e+10
1.117922e+05, 2.437364e+10
1.119040e+05, 2.529604e+10
1.120159e+05, 2.378394e+10
1.121279e+05, 2.571464e+10
1.122401e+05, 2.475184e+10
1.123523e+05, 2.515116e+10
1.124647e+05, 2.603113e+10
1.125771e+05, 2.515992e+10
1.126897e+05, 2.460977e+10
1.128024e+05, 2.575354e+10
1.129152e+05, 2.464246e+10
1.130281e+05, 2.419004e+10
1.131411e+05, 2.285354e+10
1.132543e+05, 2.431171e+10
1.133675e+05, 2.424075e+10
1.134809e+05, 2.551556e+10
1.135944e+05, 2.386864e+10
1.137080e+05, 2.316806e+10
1.138217e+05, 2.358496e+10
1.139355e+05, 2.440415e+10
1.140494e+05, 2.447718e+10
1.141635e+05, 2.640048e+10
1.142777e+05, 2.353290e+10
1.143919e+05, 2.203527e+10
1.145063e+05, 2.175031e+10
1.146208e+05, 2.448885e+10
1.147355e+05, 2.279975e+10
1.148502e+05, 2.266802e+10
1.149650e+05, 2.345122e+10
1.150800e+05, 2.376419e+10
1.151951e+05, 2.244306e+10
1.153103e+05, 2.220039e+10
1.154256e+05, 2.203065e+10
1.155410e+05, 2.018451e+10
1.156566e+05, 2.159198e+10
1.157722e+05, 2.226811e+10
1.158880e+05, 2.269413e+10
1.160039e+05, 2.056694e+10
1.161199e+05, 2.202626e+10
1.162360e+05, 2.198390e+10
1.163522e+05, 2.105891e+10
1.164686e+05, 2.167649e+10
1.165851e+05, 2.256344e+10
1.167016e+05, 2.214746e+10
1.168183e+05, 2.131399e+10
1.169352e+05, 2.144787e+10
1.170521e+05, 2.206646e+10
1.171691e+05, 2.005078e+10
1.172863e+05, 1.995431e+10
1.174036e+05, 1.977229e+10
1.175210e+05, 1.984422e+10
1.176385e+05, 2.015817e+10
1.177562e+05, 2.032098e+10
1.178739e+05, 2.080572e+10
1.179918e+05, 1.965801e+10
1.181098e+05, 2.149139e+10
1.182279e+05, 2.047998e+10
1.183461e+05, 1.875422e+10
1.184645e+05, 2.193394e+10
1.185829e+05, 1.824592e+10
1.187015e+05, 2.069035e+10
1.188202e+05, 2.127618e+10
1.189390e+05, 2.018065e+10
1.190580e+05, 1.809772e+10
1.191770e+05, 2.009484e+10
1.192962e+05, 1.966626e+10
1.194155e+05, 2.063245e+10
1.195349e+05, 1.932374e+10
1.196545e+05, 1.801415e+10
1.197741e+05, 2.087992e+10
1.198939e+05, 1.986761e+10
1.200138e+05, 1.859599e+10
1.201338e+05, 1.931592e+10
1.202539e+05, 1.856586e+10
1.203742e+05, 2.009180e+10
1.204946e+05, 1.831338e+10
1.206151e+05, 1.853816e+10
1.207357e+05, 2.019076e+10
1.208564e+05, 1.810704e+10
1.209773e+05, 1.960722e+10
1.210982e+05, 1.949976e+10
1.212193e+05, 1.801610e+10
1.213406e+05, 1.952486e+10
1.214619e+05, 1.707678e+10
1.215834e+05, 1.702374e+10
1.217049e+05, 1.968203e+10
1.218266e+05, 1.912740e+10
1.219485e+05, 1.868666e+10
1.220704e+05, 1.816134e+10
1.221925e+05, 1.793019e+10
1.223147e+05, 1.916904e+10
1.224370e+05, 1.687996e+10
1.225594e+05, 1.802591e+10
1.226820e+05, 1.839908e+10
1.228047e+05, 1.698976e+10
1.229275e+05, 1.769162e+10
1.230504e+05, 1.817166e+10
1.231735e+05, 1.653624e+10
1.232966e+05, 1.745514e+10
1.234199e+05, 1.824440e+10
1.235433e+05, 1.733996e+10
1.236669e+05, 1.699531e+10
1.237906e+05, 1.722895e+10
1.239144e+05, 1.794317e+10
1.240383e+05, 1.601506e+10
1.241623e+05, 1.628698e+10
1.242865e+05, 1.558516e+10
1.244108e+05, 1.567243e+10
1.245352e+05, 1.592292e+10
1.246597e+05, 1.694444e+10
1.247844e+05, 1.647557e+10
1.249091e+05, 1.678167e+10
1.250341e+05, 1.667876e+10
1.251591e+05, 1.611115e+10
1.252842e+05, 1.539191e+10
1.254095e+05, 1.528967e+10
1.255349e+05, 1.600916e+10
1.256605e+05, 1.594901e+10
1.257861e+05, 1.621415e+10
1.259119e+05, 1.520014e+10
1.260378e+05, 1.543479e+10
1.261639e+05, 1.662451e+10
1.262900e+05, 1.573842e+10
1.264163e+05, 1.612595e+10
1.265427e+05, 1.500059e+10
1.266693e+05, 1.476043e+10
1.267960e+05, 1.481445e+10
1.269227e+05, 1.617248e+10
1.270497e+05, 1.583451e+10
1.271767e+05, 1.542229e+10
1.273039e+05, 1.521751e+10
1.274312e+05, 1.663411e+10
1.275586e+05, 1.449379e+10
1.276862e+05, 1.427956e+10
1.278139e+05, 1.470531e+10
1.279417e+05, 1.487736e+10
1.280696e+05, 1.396951e+10
1.281977e+05, 1.452607e+10
1.283259e+05, 1.557903e+10
1.284542e+05, 1.421106e+10
1.285827e+05, 1.488300e+10
1.287113e+05, 1.509515e+10
1.288400e+05, 1.598260e+10
1.289688e+05, 1.497678e+10
1.290978e+05, 1.489916e+10
1.292269e+05, 1.385610e+10
1.293561e+05, 1.374914e+10
1.294855e+05, 1.434034e+10
1.296149e+05, 1.441335e+10
1.297446e+05, 1.404890e+10
1.298743e+05, 1.372208e+10
1.300042e+05, 1.491005e+10
1.301342e+05, 1.441058e+10
1.302643e+05, 1.305541e+10
1.303946e+05, 1.372097e+10
1.305250e+05, 1.383073e+10
1.306555e+05, 1.519306e+10
1.307862e+05, 1.388802e+10
1.309169e+05, 1.349363e+10
1.310479e+05, 1.493791e+10
1.311789e+05, 1.402790e+10
1.313101e+05, 1.409372e+10
1.314414e+05, 1.306943e+10
1.315728e+05, 1.349470e+10
1.317044e+05, 1.370117e+10
1.318361e+05, 1.279964e+10
1.319680e+05, 1.443555e+10
1.320999e+05, 1.203148e+10
1.322320e+05, 1.284369e+10
1.323643e+05, 1.326742e+10
1.324966e+05, 1.335837e+10
1.326291e+05, 1.250669e+10
1.327617e+05, 1.347065e+10
1.328945e+05, 1.245370e+10
1.330274e+05, 1.304284e+10
1.331604e+05, 1.263734e+10
1.332936e+05, 1.285120e+10
1.334269e+05, 1.257759e+10
1.335603e+05, 1.261735e+10
1.336939e+05, 1.347395e+10
1.338276e+05, 1.299289e+10
1.339614e+05, 1.343922e+10
1.340954e+05, 1.337950e+10
1.342294e+05, 1.207050e+10
1.343637e+05, 1.283617e+10
1.344980e+05, 1.158597e+10
1.346325e+05, 1.227178e+10
1.347672e+05, 1.218442e+10
1.349019e+05, 1.164334e+10
1.350368e+05, 1.270361e+10
1.351719e+05, 1.276795e+10
1.353070e+05, 1.193133e+10
1.354424e+05, 1.172040e+10
1.355778e+05, 1.188622e+10
1.357134e+05, 1.134492e+10
1.358491e+05, 1.212919e+10
1.359849e+05, 1.212594e+10
1.361209e+05, 1.190533e+10
1.362570e+05, 1.177376e+10
1.363933e+05, 1.121131e+10
1.365297e+05, 1.134006e+10
1.366662e+05, 1.240024e+10
1.368029e+05, 1.237252e+10
1.369397e+05, 1.107241e+10
1.370766e+05, 1.105468e+10
1.372137e+05, 1.101912e+10
1.373509e+05, 1.204574e+10
1.374883e+05, 1.108319e+10
1.376258e+05, 1.035793e+10
1.377634e+05, 1.099161e+10
1.379012e+05, 1.156423e+10
1.380391e+05, 1.177209e+10
1.381771e+05, 1.141545e+10
1.383153e+05, 1.199457e+10
1.384536e+05, 1.077486e+10
1.385920e+05, 1.055052e+10
1.387306e+05, 1.179745e+10
1.388694e+05, 1.158075e+10
1.390082e+05, 1.127336e+10
1.391472e+05, 1.092220e+10
1.392864e+05, 1.139130e+10
1.394257e+05, 1.114718e+10
1.395651e+05, 1.069956e+10
1.397047e+05, 1.037908e+10
1.398444e+05, 1.128150e+10
1.399842e+05, 1.046242e+10
1.401242e+05, 9.966055e+09
1.402643e+05, 1.078998e+10
1.404046e+05, 1.089018e+10
1.405450e+05, 1.105206e+10
1.406855e+05, 1.005992e+10
1.408262e+05, 1.088146e+10
1.409670e+05, 1.134889e+10
1.411080e+05, 1.043052e+10
1.412491e+05, 9.803395e+09
1.413904e+05, 9.801225e+09
1.415318e+05, 9.874709e+09
1.416733e+05, 9.518326e+09
1.418150e+05, 9.931925e+09
1.419568e+05, 1.001161e+10
1.420987e+05, 9.199410e+09
1.422408e+05, 1.056051e+10
1.423831e+05, 1.017338e+10
1.425255e+05, 1.065864e+10
1.426680e+05, 1.033544e+10
1.428107e+05, 1.028073e+10
1.429535e+05, 1.021930e+10
1.430964e+05, 1.055687e+10
1.432395e+05, 8.944886e+09
1.433828e+05, 9.620488e+09
1.435261e+05, 9.839813e+09
1.436697e+05, 9.746601e+09
1.438133e+05, 9.857958e+09
1.439571e+05, 9.826856e+09
1.441011e+05, 9.548079e+09
1.442452e+05, 9.552154e+09
1.443894e+05, 9.795794e+09
1.445338e+05, 9.258411e+09
1.446784e+05, 9.181211e+09
1.448231e+05, 8.740351e+09
1.449679e+05, 8.664496e+09
1.451128e+05, 9.816344e+09
1.452580e+05, 9.139782e+09
1.454032e+05, 9.179417e+09
1.455486e+05, 9.260233e+09
1.456942e+05, 9.894012e+09
1.458399e+05, 9.134501e+09
1.459857e+05, 9.136175e+09
1.461317e+05, 9.631691e+09
1.462778e+05, 8.700920e+09
1.464241e+05, 8.536334e+09
1.465705e+05, 8.142255e+09
1.467171e+05, 8.408262e+09
1.468638e+05, 8.745432e+09
1.470107e+05, 8.761150e+09
1.471577e+05, 8.262107e+09
1.473048e+05, 9.110011e+09
1.474521e+05, 8.849881e+09
1.475996e+05, 9.447302e+09
1.477472e+05, 8.831321e+09
1.478949e+05, 8.885361e+09
1.480428e+05, 9.388261e+09
1.481909e+05, 8.759088e+09
1.483391e+05, 8.682496e+09
1.484874e+05, 8.566655e+09
1.486359e+05, 8.508899e+09
1.487845e+05, 8.587101e+09
1.489333e+05, 8.266818e+09
1.490823e+05, 8.496438e+09
1.492313e+05, 7.768061e+09
1.493806e+05, 8.799010e+09
1.495299e+05, 8.596201e+09
1.496795e+05, 8.010021e+09
1.498292e+05, 7.899962e+09
1.499790e+05, 8.764239e+09
1.501290e+05, 8.350551e+09
1.502791e+05, 8.793071e+09
1.504294e+05, 7.081673e+09
1.505798e+05, 8.389377e+09
1.507304e+05, 8.912260e+09
1.508811e+05, 8.308066e+09
1.510320e+05, 8.019471e+09
1.511830e+05, 7.943197e+09
1.513342e+05, 7.602916e+09
1.514855e+05, 8.326360e+09
1.516370e+05, 8.002043e+09
1.517887e+05, 7.261283e+09
1.519405e+05, 7.986956e+09
1.520924e+05, 8.424388e+09
1.522445e+05, 8.134154e+09
1.523967e+05, 8.019028e+09
1.525491e+05, 7.476678e+09
1.527017e+05, 8.011253e+09
1.528544e+05, 7.461488e+09
1.530072e+05, 7.753980e+09
1.531602e+05, 7.340178e+09
1.533134e+05, 7.344249e+09
1.534667e+05, 6.910405e+09
1.536202e+05, 7.464082e+09
1.537738e+05, 7.227875e+09
1.539276e+05, 7.044344e+09
1.540815e+05, 7.872372e+09
1.542356e+05, 7.174542e+09
1.543898e+05, 7.199759e+09
1.545442e+05, 7.025722e+09
1.546988e+05, 7.229916e+09
1.548534e+05, 7.099605e+09
1.550083e+05, 7.379131e+09
1.551633e+05, 7.176889e+09
1.553185e+05, 7.268636e+09
1.554738e+05, 7.466323e+09
1.556293e+05, 7.066057e+09
1.557849e+05, 7.290326e+09
1.559407e+05, 7.532221e+09
1.560966e+05, 7.429635e+09
1.562527e+05, 7.562730e+09
1.564090e+05, 6.878799e+09
1.565654e+05, 7.195056e+09
1.567219e+05, 6.901710e+09
1.568787e+05, 7.144899e+09
1.570355e+05, 7.154450e+09
1.571926e+05, 6.879770e+09
1.573498e+05, 7.152583e+09
1.575071e+05, 6.675379e+09
1.576646e+05, 6.691408e+09
1.578223e+05, 7.245603e+09
1.579801e+05, 6.854176e+09
1.581381e+05, 6.480021e+09
1.582962e+05, 6.867575e+09
1.584545e+05, 6.761745e+09
1.586130e+05, 6.366256e+09
1.587716e+05, 7.025235e+09
1.589304e+05, 6.465890e+09
1.590893e+05, 6.815021e+09
1.592484e+05, 6.369239e+09
1.594076e+05, 6.751618e+09
1.595670e+05, 6.470329e+09
1.597266e+05, 6.208739e+09
1.598863e+05, 6.021052e+09
1.600462e+05, 6.268268e+09
1.602063e+05, 6.452096e+09
1.603665e+05, 6.438583e+09
1.605268e+05, 6.279003e+09
1.606874e+05, 6.576766e+09
1.608481e+05, 6.177023e+09
1.610089e+05, 6.251171e+09
1.611699e+05, 5.870923e+09
1.613311e+05, 6.415215e+09
1.614924e+05, 6.329762e+09
1.616539e+05, 5.835707e+09
1.618156e+05, 6.435060e+09
1.619774e+05, 6.178221e+09
1.621394e+05, 5.798313e+09
1.623015e+05, 6.283201e+09
1.624638e+05, 6.356561e+09
1.626263e+05, 5.995389e+09
1.627889e+05, 5.644431e+09
1.629517e+05, 6.270711e+09
1.631146e+05, 6.193335e+09
1.632777e+05, 5.816069e+09
1.634410e+05, 6.386291e+09
1.636045e+05, 6.631503e+09
1.637681e+05, 6.038185e+09
1.639318e+05, 5.522933e+09
1.640958e+05, 6.056627e+09
1.642599e+05, 5.941346e+09
1.644241e+05, 6.159309e+09
1.645885e+05, 6.288274e+09
1.647531e+05, 5.449216e+09
1.649179e+05, 5.895610e+09
1.650828e+05, 6.089350e+09
1.652479e+05, 5.954565e+09
1.654131e+05, 5.820946e+09
1.655785e+05, 5.028189e+09
1.657441e+05, 5.558564e+09
1.659099e+05, 5.715300e+09
1.660758e+05, 5.473013e+09
1.662419e+05, 5.330201e+09
1.664081e+05, 5.415507e+09
1.665745e+05, 5.406904e+09
1.667411e+05, 5.675165e+09
1.669078e+05, 5.977466e+09
1.670747e+05, 5.476560e+09
1.672418e+05, 5.533872e+09
1.674090e+05, 5.578457e+09
1.675765e+05, 5.098268e+09
1.677440e+05, 5.916639e+09
1.679118e+05, 5.489081e+09
1.680797e+05, 5.557686e+09
1.682478e+05, 5.291525e+09
1.684160e+05, 5.030420e+09
1.685844e+05, 5.638261e+09
1.687530e+05, 5.019185e+09
1.689218e+05, 5.134848e+09
1.690907e+05, 5.388872e+09
1.692598e+05, 5.070631e+09
1.694290e+05, 5.566997e+09
1.695985e+05, 5.498003e+09
1.697681e+05, 5.368875e+09
1.699378e+05, 5.206583e+09
1.701078e+05, 5.461426e+09
1.702779e+05, 5.521425e+09
1.704482e+05, 5.522499e+09
1.706186e+05, 5.335084e+09
1.707892e+05, 4.993533e+09
1.709600e+05, 5.184543e+09
1.711310e+05, 5.154772e+09
1.713021e+05, 4.677229e+09
1.714734e+05, 4.896922e+09
1.716449e+05, 5.016211e+09
1.718165e+05, 4.963915e+09
1.719883e+05, 4.845214e+09
1.721603e+05, 4.943471e+09
1.723325e+05, 4.557618e+09
1.725048e+05, 4.682991e+09
1.726773e+05, 4.728836e+09
1.728500e+05, 4.753827e+09
1.730229e+05, 5.042136e+09
1.731959e+05, 4.915359e+09
1.733691e+05, 4.745017e+09
1.735424e+05, 4.692210e+09
1.737160e+05, 4.830713e+09
1.738897e+05, 5.136058e+09
1.740636e+05, 4.586488e+09
1.742377e+05, 5.273225e+09
1.744119e+05, 4.602235e+09
1.745863e+05, 4.576160e+09
1.747609e+05, 4.426035e+09
1.749357e+05, 4.828986e+09
1.751106e+05, 4.809972e+09
1.752857e+05, 4.329931e+09
1.754610e+05, 4.471603e+09
1.756364e+05, 4.755274e+09
1.758121e+05, 4.553593e+09
1.759879e+05, 4.482639e+09
1.761639e+05, 4.572295e+09
1.763400e+05, 4.063186e+09
1.765164e+05, 4.382204e+09
1.766929e+05, 4.481446e+09
1.768696e+05, 4.677035e+09
1.770465e+05, 4.426509e+09
1.772235e+05, 4.354085e+09
1.774007e+05, 4.576530e+09
1.775781e+05, 4.305231e+09
1.777557e+05, 4.314516e+09
1.779335e+05, 4.675785e+09
1.781114e+05, 4.593271e+09
1.782895e+05, 4.393725e+09
1.784678e+05, 4.396710e+09
1.786463e+05, 4.339050e+09
1.788249e+05, 4.586739e+09
1.790037e+05, 4.379269e+09
1.791827e+05, 4.283999e+09
1.793619e+05, 4.008539e+09
1.795413e+05, 4.145362e+09
1.797208e+05, 4.562508e+09
1.799006e+05, 4.900890e+09
1.800805e+05, 4.274076e+09
1.802605e+05, 3.866732e+09
1.804408e+05, 4.314889e+09
1.806212e+05, 4.097953e+09
1.808019e+05, 3.952896e+09
1.809827e+05, 4.090842e+09
1.811636e+05, 4.452265e+09
1.813448e+05, 4.061159e+09
1.815262e+05, 3.918587e+09
1.817077e+05, 3.789736e+09
1.818894e+05, 3.989371e+09
1.820713e+05, 4.318415e+09
1.822533e+05, 4.055206e+09
1.824356e+05, 4.052928e+09
1.826180e+05, 3.964727e+09
1.828007e+05, 4.076093e+09
1.829835e+05, 3.870417e+09
1.831664e+05, 4.008956e+09
1.833496e+05, 4.156952e+09
1.835330e+05, 4.052463e+09
1.837165e+05, 3.863830e+09
1.839002e+05, 3.757945e+09
1.840841e+05, 3.976594e+09
1.842682e+05, 3.703558e+09
1.844525e+05, 4.253544e+09
1.846369e+05, 4.035481e+09
1.848215e+05, 4.119574e+09
1.850064e+05, 3.900673e+09
1.851914e+05, 3.611979e+09
1.853766e+05, 3.766274e+09
1.855619e+05, 3.434908e+09
1.857475e+05, 3.828250e+09
1.859333e+05, 3.425089e+09
1.861192e+05, 3.724552e+09
1.863053e+05, 3.589307e+09
1.864916e+05, 3.663474e+09
1.866781e+05, 3.569629e+09
1.868648e+05, 3.941925e+09
1.870516e+05, 3.646030e+09
1.872387e+05, 3.373732e+09
1.874259e+05, 3.640022e+09
1.876134e+05, 3.403209e+09
1.878010e+05, 3.647753e+09
1.879888e+05, 3.897356e+09
1.881768e+05, 3.577952e+09
1.883649e+05, 3.638515e+09
1.885533e+05, 3.616744e+09
1.887419e+05, 3.602352e+09
1.889306e+05, 3.345445e+09
1.891195e+05, 3.626019e+09
1.893086e+05, 3.446925e+09
1.894980e+05, 3.448399e+09
1.896875e+05, 3.495212e+09
1.898771e+05, 3.573964e+09
1.900670e+05, 3.439882e+09
1.902571e+05, 3.659336e+09
1.904473e+05, 3.487799e+09
1.906378e+05, 3.540283e+09
1.908284e+05, 3.439234e+09
1.910193e+05, 3.748446e+09
1.912103e+05, 3.651226e+09
1.914015e+05, 3.401509e+09
1.915929e+05, 3.618690e+09
1.917845e+05, 3.125540e+09
1.919763e+05, 3.278112e+09
1.921682e+05, 3.020899e+09
1.923604e+05, 3.170925e+09
1.925528e+05, 3.276106e+09
1.927453e+05, 3.415727e+09
1.929381e+05, 3.143838e+09
1.931310e+05, 3.275865e+09
1.933241e+05, 3.225322e+09
1.935175e+05, 3.068063e+09
1.937110e+05, 3.295614e+09
1.939047e+05, 3.417262e+09
1.940986e+05, 3.202499e+09
1.942927e+05, 2.987872e+09
1.944870e+05, 3.201084e+09
1.946815e+05, 3.261747e+09
1.948762e+05, 3.243350e+09
1.950710e+05, 3.377985e+09
1.952661e+05, 3.101697e+09
1.954614e+05, 3.317357e+09
1.956568e+05, 2.950028e+09
1.958525e+05, 2.870649e+09
1.960483e+05, 3.281101e+09
1.962444e+05, 2.833679e+09
1.964406e+05, 2.923216e+09
1.966371e+05, 3.030873e+09
1.968337e+05, 3.138909e+09
1.970305e+05, 3.197531e+09
1.972276e+05, 3.160834e+09
1.974248e+05, 2.975772e+09
1.976222e+05, 3.157185e+09
1.978198e+05, 3.107913e+09
1.980177e+05, 2.909089e+09
1.982157e+05, 2.815266e+09
1.984139e+05, 2.811580e+09
1.986123e+05, 3.048021e+09
1.988109e+05, 2.953195e+09
1.990097e+05, 2.735041e+09
1.992087e+05, 3.084694e+09
1.994080e+05, 2.804319e+09
1.996074e+05, 2.895148e+09
1.998070e+05, 3.135177e+09