wavelength[Angstrom], flux[erg / (cm3 s)]
1.000000e+03, 2.634860e-03
1.001000e+03, 1.396299e-03
1.002001e+03, 5.096698e-04
1.003003e+03, 7.583237e-04
1.004006e+03, 8.490428e-04
1.005010e+03, 9.188628e-04
1.006015e+03, 3.874305e-04
1.007021e+03, 9.855309e-04
1.008028e+03, 6.799374e-04
1.009036e+03, 8.598619e-04
1.010045e+03, 8.361753e-04
1.011055e+03, 9.418369e-04
1.012066e+03, 1.015710e-03
1.013078e+03, 7.420835e-04
1.014091e+03, 5.896896e-04
1.015105e+03, 2.294402e-03
1.016121e+03, 1.760161e-03
1.017137e+03, 7.903474e-04
1.018154e+03, 8.648206e-04
1.019172e+03, 2.081473e-03
1.020191e+03, 2.385139e-03
1.021211e+03, 1.308732e-03
1.022233e+03, 8.282710e-04
1.023255e+03, 7.439246e-04
1.024278e+03, 3.760935e-04
1.025302e+03, 2.498244e-05
1.026328e+03, 5.152089e-05
1.027354e+03, 5.989568e-04
1.028381e+03, 8.853979e-04
1.029410e+03, 1.518424e-03
1.030439e+03, 2.599804e-03
1.031470e+03, 2.582581e-03
1.032501e+03, 9.337542e-03
1.033533e+03, 3.234829e-03
1.034567e+03, 6.123978e-03
1.035602e+03, 4.246836e-03
1.036637e+03, 4.145110e-03
1.037674e+03, 1.690441e-02
1.038712e+03, 7.751610e-03
1.039750e+03, 7.444547e-03
1.040790e+03, 7.229885e-03
1.041831e+03, 1.158836e-02
1.042873e+03, 1.508525e-02
1.043915e+03, 1.182793e-02
1.044959e+03, 1.781586e-02
1.046004e+03, 9.930046e-03
1.047050e+03, 7.624005e-03
1.048097e+03, 1.007102e-02
1.049145e+03, 1.500779e-02
1.050195e+03, 6.307047e-03
1.051245e+03, 8.838264e-03
1.052296e+03, 7.697915e-03
1.053348e+03, 1.220790e-02
1.054402e+03, 1.800098e-02
1.055456e+03, 1.560858e-02
1.056512e+03, 1.216410e-02
1.057568e+03, 1.240228e-02
1.058626e+03, 9.397257e-03
1.059684e+03, 2.805496e-02
1.060744e+03, 5.503608e-02
1.061805e+03, 1.399591e-02
1.062867e+03, 3.544020e-02
1.063929e+03, 6.004291e-02
1.064993e+03, 1.056803e-02
1.066058e+03, 3.360933e-02
1.067124e+03, 2.906687e-02
1.068191e+03, 4.247892e-02
1.069260e+03, 4.444179e-02
1.070329e+03, 2.975298e-02
1.071399e+03, 2.798661e-02
1.072471e+03, 3.115176e-02
1.073543e+03, 4.956286e-02
1.074617e+03, 4.600886e-02
1.075691e+03, 1.092235e-01
1.076767e+03, 5.200177e-02
1.077844e+03, 2.318965e-02
1.078922e+03, 4.237390e-02
1.080001e+03, 9.830909e-02
1.081081e+03, 5.728602e-02
1.082162e+03, 1.322494e-01
1.083244e+03, 1.370677e-01
1.084327e+03, 1.217363e-01
1.085411e+03, 4.823022e-02
1.086497e+03, 9.239543e-02
1.087583e+03, 1.013685e-01
1.088671e+03, 1.107507e-01
1.089759e+03, 9.332996e-02
1.090849e+03, 1.602829e-01
1.091940e+03, 1.980673e-01
1.093032e+03, 1.959917e-01
1.094125e+03, 3.482144e-02
1.095219e+03, 1.708380e-01
1.096314e+03, 1.975327e-01
1.097411e+03, 1.617128e-01
1.098508e+03, 1.883585e-01
1.099607e+03, 7.947773e-02
1.100706e+03, 8.577317e-02
1.101807e+03, 1.022995e-01
1.102909e+03, 5.724112e-01
1.104012e+03, 2.580093e-01
1.105116e+03, 3.106678e-01
1.106221e+03, 3.535232e-01
1.107327e+03, 4.657512e-01
1.108434e+03, 1.428647e-01
1.109543e+03, 2.440374e-01
1.110652e+03, 3.413194e-01
1.111763e+03, 5.555150e-01
1.112875e+03, 5.777650e-01
1.113988e+03, 2.195211e-01
1.115102e+03, 2.435381e-01
1.116217e+03, 1.619087e-01
1.117333e+03, 5.693288e-01
1.118450e+03, 4.894644e-01
1.119569e+03, 3.570546e-01
1.120688e+03, 3.270818e-01
1.121809e+03, 8.500741e-01
1.122931e+03, 8.761284e-01
1.124054e+03, 5.132549e-01
1.125178e+03, 4.509843e-01
1.126303e+03, 1.953883e+00
1.127429e+03, 1.126071e+00
1.128557e+03, 1.062083e+00
1.129685e+03, 8.546390e-01
1.130815e+03, 1.069288e+00
1.131946e+03, 9.879050e-01
1.133078e+03, 1.260806e+00
1.134211e+03, 7.954206e-01
1.135345e+03, 5.993864e-01
1.136480e+03, 1.172480e+00
1.137617e+03, 1.244958e+00
1.138754e+03, 1.168058e+00
1.139893e+03, 6.666409e-01
1.141033e+03, 1.476690e+00
1.142174e+03, 1.748663e+00
1.143316e+03, 1.075026e+00
1.144460e+03, 9.115251e-01
1.145604e+03, 1.155263e+00
1.146750e+03, 1.187769e+00
1.147896e+03, 1.505246e+00
1.149044e+03, 9.530805e-01
1.150193e+03, 1.148499e+00
1.151344e+03, 1.042865e+00
1.152495e+03, 1.478849e+00
1.153647e+03, 1.419593e+00
1.154801e+03, 1.162757e+00
1.155956e+03, 1.330697e+00
1.157112e+03, 1.944597e+00
1.158269e+03, 1.583236e+00
1.159427e+03, 8.948472e-01
1.160587e+03, 1.982410e+00
1.161747e+03, 5.822425e-01
1.162909e+03, 1.356015e+00
1.164072e+03, 1.072824e+00
1.165236e+03, 8.280460e-01
1.166401e+03, 4.599870e-01
1.167568e+03, 9.371082e-01
1.168735e+03, 1.567492e+00
1.169904e+03, 7.928410e-01
1.171074e+03, 9.651380e-01
1.172245e+03, 9.330258e-01
1.173417e+03, 1.482993e+00
1.174590e+03, 1.424739e+00
1.175765e+03, 1.003789e+00
1.176941e+03, 2.042013e+00
1.178118e+03, 2.366536e+00
1.179296e+03, 1.929412e+00
1.180475e+03, 1.595843e+00
1.181656e+03, 1.945865e+00
1.182837e+03, 1.793139e+00
1.184020e+03, 2.002124e+00
1.185204e+03, 1.509587e+00
1.186389e+03, 1.556781e+00
1.187576e+03, 2.004506e+00
1.188763e+03, 2.057805e+00
1.189952e+03, 2.275799e+00
1.191142e+03, 1.921805e+00
1.192333e+03, 1.489137e+00
1.193526e+03, 1.544275e+00
1.194719e+03, 3.894390e+00
1.195914e+03, 7.640637e+00
1.197110e+03, 1.835106e+01
1.198307e+03, 7.496907e+00
1.199505e+03, 1.031371e+01
1.200705e+03, 1.021648e+01
1.201905e+03, 6.870715e+00
1.203107e+03, 9.105803e+00
1.204310e+03, 6.631135e+00
1.205515e+03, 5.899933e+00
1.206720e+03, 6.371188e+00
1.207927e+03, 4.164561e+00
1.209135e+03, 3.382037e+00
1.210344e+03, 1.271635e+00
1.211554e+03, 1.133956e+00
1.212766e+03, 5.431494e-01
1.213979e+03, 1.806088e-01
1.215193e+03, 2.655098e-02
1.216408e+03, 4.347790e-02
1.217624e+03, 2.778688e-01
1.218842e+03, 7.442209e-01
1.220061e+03, 1.618040e+00
1.221281e+03, 3.339170e+00
1.222502e+03, 5.220617e+00
1.223724e+03, 8.846059e+00
1.224948e+03, 9.153023e+00
1.226173e+03, 1.939536e+01
1.227399e+03, 1.338583e+01
1.228627e+03, 2.217015e+01
1.229855e+03, 1.861546e+01
1.231085e+03, 3.430997e+01
1.232316e+03, 4.991572e+01
1.233549e+03, 4.448215e+01
1.234782e+03, 5.777319e+01
1.236017e+03, 4.231482e+01
1.237253e+03, 4.779219e+01
1.238490e+03, 7.024914e+01
1.239729e+03, 9.768055e+01
1.240968e+03, 6.033653e+01
1.242209e+03, 6.527929e+01
1.243452e+03, 9.135580e+01
1.244695e+03, 9.999855e+01
1.245940e+03, 6.247018e+01
1.247186e+03, 1.017349e+02
1.248433e+03, 1.255133e+02
1.249681e+03, 1.301864e+02
1.250931e+03, 1.086460e+02
1.252182e+03, 1.318830e+02
1.253434e+03, 1.314270e+02
1.254688e+03, 1.744525e+02
1.255942e+03, 1.043258e+02
1.257198e+03, 9.216217e+01
1.258455e+03, 9.248712e+01
1.259714e+03, 1.534865e+02
1.260974e+03, 1.249747e+02
1.262235e+03, 1.497236e+02
1.263497e+03, 1.385008e+02
1.264760e+03, 1.592171e+02
1.266025e+03, 1.582758e+02
1.267291e+03, 1.592243e+02
1.268558e+03, 1.226180e+02
1.269827e+03, 2.367933e+02
1.271097e+03, 1.718895e+02
1.272368e+03, 1.764434e+02
1.273640e+03, 2.564367e+02
1.274914e+03, 1.642104e+02
1.276189e+03, 1.807916e+02
1.277465e+03, 2.136426e+02
1.278742e+03, 1.831546e+02
1.280021e+03, 1.544093e+02
1.281301e+03, 2.867990e+02
1.282582e+03, 1.781896e+02
1.283865e+03, 3.036841e+02
1.285149e+03, 3.411826e+02
1.286434e+03, 1.886941e+02
1.287720e+03, 2.968975e+02
1.289008e+03, 3.697443e+02
1.290297e+03, 3.604135e+02
1.291588e+03, 4.153149e+02
1.292879e+03, 2.794416e+02
1.294172e+03, 4.626827e+02
1.295466e+03, 4.705901e+02
1.296762e+03, 5.025212e+02
1.298058e+03, 4.600661e+02
1.299356e+03, 4.770365e+02
1.300656e+03, 6.492251e+02
1.301956e+03, 6.839425e+02
1.303258e+03, 8.469770e+02
1.304562e+03, 6.629525e+02
1.305866e+03, 7.459894e+02
1.307172e+03, 7.938966e+02
1.308479e+03, 9.216541e+02
1.309788e+03, 9.095795e+02
1.311098e+03, 6.742478e+02
1.312409e+03, 5.678458e+02
1.313721e+03, 6.475335e+02
1.315035e+03, 5.072779e+02
1.316350e+03, 6.139866e+02
1.317666e+03, 7.482190e+02
1.318984e+03, 6.047507e+02
1.320303e+03, 6.801409e+02
1.321623e+03, 6.942749e+02
1.322945e+03, 5.514169e+02
1.324268e+03, 5.999598e+02
1.325592e+03, 6.807667e+02
1.326918e+03, 6.427189e+02
1.328244e+03, 7.689736e+02
1.329573e+03, 8.274686e+02
1.330902e+03, 1.090601e+03
1.332233e+03, 1.040216e+03
1.333565e+03, 1.009017e+03
1.334899e+03, 1.103322e+03
1.336234e+03, 1.059857e+03
1.337570e+03, 1.147137e+03
1.338908e+03, 1.152476e+03
1.340247e+03, 1.239349e+03
1.341587e+03, 1.414404e+03
1.342928e+03, 9.964141e+02
1.344271e+03, 1.454680e+03
1.345616e+03, 1.018928e+03
1.346961e+03, 1.115637e+03
1.348308e+03, 1.487083e+03
1.349656e+03, 1.286562e+03
1.351006e+03, 1.473545e+03
1.352357e+03, 1.890817e+03
1.353709e+03, 2.082209e+03
1.355063e+03, 2.238989e+03
1.356418e+03, 1.885282e+03
1.357775e+03, 2.127137e+03
1.359132e+03, 2.233999e+03
1.360492e+03, 2.104511e+03
1.361852e+03, 2.158930e+03
1.363214e+03, 1.926237e+03
1.364577e+03, 2.336838e+03
1.365942e+03, 1.764838e+03
1.367308e+03, 2.103197e+03
1.368675e+03, 1.787323e+03
1.370044e+03, 2.087311e+03
1.371414e+03, 1.896693e+03
1.372785e+03, 2.133626e+03
1.374158e+03, 1.931800e+03
1.375532e+03, 2.451292e+03
1.376908e+03, 2.190270e+03
1.378284e+03, 2.891193e+03
1.379663e+03, 2.743433e+03
1.381042e+03, 3.178723e+03
1.382423e+03, 3.435016e+03
1.383806e+03, 3.459730e+03
1.385190e+03, 3.650031e+03
1.386575e+03, 4.216537e+03
1.387961e+03, 4.524504e+03
1.389349e+03, 5.147111e+03
1.390739e+03, 5.053820e+03
1.392130e+03, 5.828374e+03
1.393522e+03, 5.844932e+03
1.394915e+03, 6.679426e+03
1.396310e+03, 7.205909e+03
1.397706e+03, 8.005465e+03
1.399104e+03, 8.441710e+03
1.400503e+03, 9.502418e+03
1.401904e+03, 1.037286e+04
1.403306e+03, 9.993372e+03
1.404709e+03, 1.125051e+04
1.406114e+03, 1.210973e+04
1.407520e+03, 1.430070e+04
1.408927e+03, 1.220172e+04
1.410336e+03, 1.193789e+04
1.411747e+03, 1.585416e+04
1.413158e+03, 1.283025e+04
1.414571e+03, 1.462858e+04
1.415986e+03, 1.390223e+04
1.417402e+03, 1.782516e+04
1.418819e+03, 1.589563e+04
1.420238e+03, 2.024143e+04
1.421658e+03, 1.823138e+04
1.423080e+03, 1.671403e+04
1.424503e+03, 1.727483e+04
1.425928e+03, 2.192646e+04
1.427354e+03, 1.899195e+04
1.428781e+03, 1.976219e+04
1.430210e+03, 2.141261e+04
1.431640e+03, 2.343452e+04
1.433072e+03, 2.038280e+04
1.434505e+03, 2.295543e+04
1.435939e+03, 2.474454e+04
1.437375e+03, 2.499964e+04
1.438813e+03, 2.783818e+04
1.440251e+03, 2.677912e+04
1.441692e+03, 2.747858e+04
1.443133e+03, 2.886578e+04
1.444576e+03, 3.085531e+04
1.446021e+03, 3.013473e+04
1.447467e+03, 2.709456e+04
1.448914e+03, 3.518462e+04
1.450363e+03, 3.730077e+04
1.451814e+03, 3.400709e+04
1.453266e+03, 3.675742e+04
1.454719e+03, 3.755045e+04
1.456174e+03, 3.963768e+04
1.457630e+03, 3.671647e+04
1.459087e+03, 3.779992e+04
1.460546e+03, 3.663116e+04
1.462007e+03, 4.392728e+04
1.463469e+03, 4.544673e+04
1.464932e+03, 4.520802e+04
1.466397e+03, 5.419765e+04
1.467864e+03, 5.089127e+04
1.469332e+03, 5.113984e+04
1.470801e+03, 5.770173e+04
1.472272e+03, 4.901621e+04
1.473744e+03, 4.839752e+04
1.475218e+03, 6.023043e+04
1.476693e+03, 6.175576e+04
1.478170e+03, 5.782659e+04
1.479648e+03, 6.095980e+04
1.481128e+03, 6.545717e+04
1.482609e+03, 6.888634e+04
1.484091e+03, 7.004446e+04
1.485575e+03, 7.816097e+04
1.487061e+03, 6.782188e+04
1.488548e+03, 7.130249e+04
1.490037e+03, 8.241307e+04
1.491527e+03, 7.965193e+04
1.493018e+03, 7.608314e+04
1.494511e+03, 7.647501e+04
1.496006e+03, 9.384644e+04
1.497502e+03, 9.103062e+04
1.498999e+03, 9.758598e+04
1.500498e+03, 1.020505e+05
1.501999e+03, 1.009707e+05
1.503501e+03, 1.033775e+05
1.505004e+03, 1.047027e+05
1.506509e+03, 1.190213e+05
1.508016e+03, 1.187833e+05
1.509524e+03, 1.217075e+05
1.511033e+03, 1.227905e+05
1.512544e+03, 1.210022e+05
1.514057e+03, 1.181574e+05
1.515571e+03, 1.143102e+05
1.517086e+03, 1.129643e+05
1.518603e+03, 1.133869e+05
1.520122e+03, 1.164537e+05
1.521642e+03, 1.584491e+05
1.523164e+03, 1.682004e+05
1.524687e+03, 1.621012e+05
1.526212e+03, 1.638222e+05
1.527738e+03, 1.689660e+05
1.529266e+03, 1.519207e+05
1.530795e+03, 1.618085e+05
1.532326e+03, 1.370443e+05
1.533858e+03, 1.322721e+05
1.535392e+03, 1.313510e+05
1.536927e+03, 1.369078e+05
1.538464e+03, 1.376244e+05
1.540003e+03, 1.330035e+05
1.541543e+03, 1.236155e+05
1.543084e+03, 1.572726e+05
1.544627e+03, 1.330723e+05
1.546172e+03, 1.310279e+05
1.547718e+03, 1.363464e+05
1.549266e+03, 1.193320e+05
1.550815e+03, 1.173283e+05
1.552366e+03, 1.086289e+05
1.553918e+03, 1.404228e+05
1.555472e+03, 1.335053e+05
1.557028e+03, 1.821358e+05
1.558585e+03, 1.853976e+05
1.560143e+03, 2.068568e+05
1.561703e+03, 2.261623e+05
1.563265e+03, 2.313946e+05
1.564828e+03, 2.683473e+05
1.566393e+03, 2.962950e+05
1.567960e+03, 2.810895e+05
1.569528e+03, 3.157673e+05
1.571097e+03, 3.286769e+05
1.572668e+03, 3.418884e+05
1.574241e+03, 3.217144e+05
1.575815e+03, 3.468905e+05
1.577391e+03, 3.763875e+05
1.578968e+03, 3.943628e+05
1.580547e+03, 3.100539e+05
1.582128e+03, 2.710881e+05
1.583710e+03, 3.391999e+05
1.585294e+03, 3.317271e+05
1.586879e+03, 3.219273e+05
1.588466e+03, 3.680278e+05
1.590054e+03, 3.523651e+05
1.591644e+03, 3.641645e+05
1.593236e+03, 2.759224e+05
1.594829e+03, 2.945404e+05
1.596424e+03, 3.169411e+05
1.598020e+03, 3.190171e+05
1.599618e+03, 3.216389e+05
1.601218e+03, 3.131528e+05
1.602819e+03, 3.158590e+05
1.604422e+03, 2.827439e+05
1.606027e+03, 2.818823e+05
1.607633e+03, 3.395805e+05
1.609240e+03, 2.575997e+05
1.610849e+03, 3.190662e+05
1.612460e+03, 2.604436e+05
1.614073e+03, 3.122034e+05
1.615687e+03, 3.336998e+05
1.617303e+03, 2.860712e+05
1.618920e+03, 3.765150e+05
1.620539e+03, 2.715540e+05
1.622159e+03, 2.907263e+05
1.623781e+03, 3.902896e+05
1.625405e+03, 3.652370e+05
1.627031e+03, 3.951260e+05
1.628658e+03, 4.749399e+05
1.630286e+03, 5.671980e+05
1.631917e+03, 5.831567e+05
1.633549e+03, 5.304621e+05
1.635182e+03, 4.410198e+05
1.636817e+03, 7.198203e+05
1.638454e+03, 5.310641e+05
1.640093e+03, 3.953912e+05
1.641733e+03, 5.932340e+05
1.643374e+03, 7.300067e+05
1.645018e+03, 7.713639e+05
1.646663e+03, 7.400294e+05
1.648309e+03, 8.931006e+05
1.649958e+03, 7.744137e+05
1.651608e+03, 6.155347e+05
1.653259e+03, 9.197730e+05
1.654913e+03, 8.331433e+05
1.656567e+03, 7.132887e+05
1.658224e+03, 8.715897e+05
1.659882e+03, 7.535793e+05
1.661542e+03, 1.029475e+06
1.663204e+03, 9.962078e+05
1.664867e+03, 1.228461e+06
1.666532e+03, 9.574336e+05
1.668198e+03, 8.215368e+05
1.669866e+03, 6.342080e+05
1.671536e+03, 8.725806e+05
1.673208e+03, 9.972785e+05
1.674881e+03, 1.161554e+06
1.676556e+03, 1.237666e+06
1.678233e+03, 1.258905e+06
1.679911e+03, 1.335413e+06
1.681591e+03, 1.057712e+06
1.683272e+03, 1.297259e+06
1.684956e+03, 1.612139e+06
1.686640e+03, 1.422345e+06
1.688327e+03, 1.490368e+06
1.690015e+03, 1.447890e+06
1.691705e+03, 1.901569e+06
1.693397e+03, 1.399514e+06
1.695091e+03, 1.956562e+06
1.696786e+03, 2.591924e+06
1.698482e+03, 1.515889e+06
1.700181e+03, 1.483382e+06
1.701881e+03, 1.600483e+06
1.703583e+03, 1.442712e+06
1.705287e+03, 1.914958e+06
1.706992e+03, 2.455228e+06
1.708699e+03, 2.046528e+06
1.710408e+03, 2.554571e+06
1.712118e+03, 2.751358e+06
1.713830e+03, 2.811318e+06
1.715544e+03, 2.489254e+06
1.717259e+03, 1.535688e+06
1.718977e+03, 2.188563e+06
1.720696e+03, 2.204784e+06
1.722416e+03, 2.457828e+06
1.724139e+03, 2.769837e+06
1.725863e+03, 3.105367e+06
1.727589e+03, 3.917886e+06
1.729316e+03, 3.952875e+06
1.731046e+03, 3.749889e+06
1.732777e+03, 4.425371e+06
1.734510e+03, 2.407967e+06
1.736244e+03, 3.099774e+06
1.737980e+03, 2.918499e+06
1.739718e+03, 2.799851e+06
1.741458e+03, 3.070336e+06
1.743199e+03, 3.541792e+06
1.744943e+03, 4.693094e+06
1.746688e+03, 4.699377e+06
1.748434e+03, 4.377748e+06
1.750183e+03, 4.146006e+06
1.751933e+03, 3.973940e+06
1.753685e+03, 3.027574e+06
1.755439e+03, 4.703683e+06
1.757194e+03, 4.394283e+06
1.758951e+03, 4.318433e+06
1.760710e+03, 4.495824e+06
1.762471e+03, 4.279531e+06
1.764233e+03, 4.808631e+06
1.765998e+03, 4.898156e+06
1.767764e+03, 7.590060e+06
1.769531e+03, 6.218855e+06
1.771301e+03, 4.536337e+06
1.773072e+03, 3.724824e+06
1.774845e+03, 5.028501e+06
1.776620e+03, 5.304317e+06
1.778397e+03, 6.043753e+06
1.780175e+03, 6.295596e+06
1.781955e+03, 8.047073e+06
1.783737e+03, 8.440700e+06
1.785521e+03, 8.398912e+06
1.787306e+03, 9.942135e+06
1.789094e+03, 8.005442e+06
1.790883e+03, 7.006184e+06
1.792674e+03, 5.601350e+06
1.794466e+03, 7.632201e+06
1.796261e+03, 9.321986e+06
1.798057e+03, 8.300896e+06
1.799855e+03, 8.691858e+06
1.801655e+03, 1.027715e+07
1.803457e+03, 1.147013e+07
1.805260e+03, 1.048585e+07
1.807065e+03, 1.015565e+07
1.808872e+03, 1.304960e+07
1.810681e+03, 1.054190e+07
1.812492e+03, 6.223590e+06
1.814304e+03, 7.905796e+06
1.816119e+03, 9.565795e+06
1.817935e+03, 1.134421e+07
1.819753e+03, 8.778144e+06
1.821573e+03, 1.014679e+07
1.823394e+03, 1.437832e+07
1.825218e+03, 1.352883e+07
1.827043e+03, 1.291912e+07
1.828870e+03, 1.451979e+07
1.830699e+03, 1.499161e+07
1.832529e+03, 9.679380e+06
1.834362e+03, 9.069959e+06
1.836196e+03, 1.053471e+07
1.838032e+03, 1.317859e+07
1.839871e+03, 1.188013e+07
1.841710e+03, 1.314251e+07
1.843552e+03, 1.689605e+07
1.845396e+03, 1.722694e+07
1.847241e+03, 1.919183e+07
1.849088e+03, 1.981230e+07
1.850937e+03, 1.592030e+07
1.852788e+03, 1.423657e+07
1.854641e+03, 1.056319e+07
1.856496e+03, 1.115946e+07
1.858352e+03, 1.457101e+07
1.860211e+03, 1.747458e+07
1.862071e+03, 1.838988e+07
1.863933e+03, 1.680608e+07
1.865797e+03, 1.924299e+07
1.867663e+03, 2.429817e+07
1.869530e+03, 2.338700e+07
1.871400e+03, 2.254539e+07
1.873271e+03, 1.888418e+07
1.875144e+03, 1.777551e+07
1.877020e+03, 1.941179e+07
1.878897e+03, 1.829256e+07
1.880776e+03, 1.928150e+07
1.882656e+03, 2.202675e+07
1.884539e+03, 2.623641e+07
1.886424e+03, 2.498519e+07
1.888310e+03, 2.678605e+07
1.890198e+03, 2.863505e+07
1.892088e+03, 3.507336e+07
1.893981e+03, 3.312470e+07
1.895875e+03, 2.955165e+07
1.897770e+03, 2.806883e+07
1.899668e+03, 2.283930e+07
1.901568e+03, 2.714462e+07
1.903469e+03, 3.599165e+07
1.905373e+03, 3.339467e+07
1.907278e+03, 3.569696e+07
1.909186e+03, 3.902298e+07
1.911095e+03, 4.251092e+07
1.913006e+03, 4.343149e+07
1.914919e+03, 4.319110e+07
1.916834e+03, 4.802937e+07
1.918751e+03, 3.976899e+07
1.920669e+03, 3.979016e+07
1.922590e+03, 3.800232e+07
1.924513e+03, 4.009529e+07
1.926437e+03, 4.609061e+07
1.928364e+03, 4.287004e+07
1.930292e+03, 5.023889e+07
1.932222e+03, 5.601754e+07
1.934154e+03, 5.146615e+07
1.936089e+03, 4.706991e+07
1.938025e+03, 5.462319e+07
1.939963e+03, 5.127362e+07
1.941903e+03, 6.514435e+07
1.943845e+03, 4.962273e+07
1.945788e+03, 4.572794e+07
1.947734e+03, 5.795332e+07
1.949682e+03, 5.330353e+07
1.951632e+03, 5.436784e+07
1.953583e+03, 7.394978e+07
1.955537e+03, 6.480907e+07
1.957492e+03, 7.319606e+07
1.959450e+03, 6.465490e+07
1.961409e+03, 6.724478e+07
1.963371e+03, 7.281563e+07
1.965334e+03, 7.563784e+07
1.967299e+03, 7.480751e+07
1.969267e+03, 6.840526e+07
1.971236e+03, 8.475284e+07
1.973207e+03, 7.513828e+07
1.975180e+03, 8.667658e+07
1.977156e+03, 8.547628e+07
1.979133e+03, 9.099478e+07
1.981112e+03, 9.473382e+07
1.983093e+03, 1.012775e+08
1.985076e+03, 1.096305e+08
1.987061e+03, 1.028229e+08
1.989048e+03, 1.016182e+08
1.991037e+03, 8.634307e+07
1.993028e+03, 9.664628e+07
1.995021e+03, 8.853395e+07
1.997016e+03, 9.380307e+07
1.999013e+03, 1.002648e+08
2.001012e+03, 1.002339e+08
2.003013e+03, 1.136394e+08
2.005016e+03, 1.094380e+08
2.007021e+03, 1.049529e+08
2.009028e+03, 1.215975e+08
2.011037e+03, 1.283065e+08
2.013048e+03, 1.395033e+08
2.015062e+03, 1.349264e+08
2.017077e+03, 1.208487e+08
2.019094e+03, 1.284202e+08
2.021113e+03, 1.265773e+08
2.023134e+03, 1.261088e+08
2.025157e+03, 1.382073e+08
2.027182e+03, 1.262524e+08
2.029209e+03, 1.536207e+08
2.031239e+03, 1.512236e+08
2.033270e+03, 1.597261e+08
2.035303e+03, 1.443407e+08
2.037338e+03, 1.585761e+08
2.039376e+03, 1.641724e+08
2.041415e+03, 1.586116e+08
2.043457e+03, 1.612789e+08
2.045500e+03, 1.570402e+08
2.047545e+03, 1.564048e+08
2.049593e+03, 1.735464e+08
2.051643e+03, 1.728714e+08
2.053694e+03, 1.772590e+08
2.055748e+03, 1.703224e+08
2.057804e+03, 1.995627e+08
2.059861e+03, 1.783719e+08
2.061921e+03, 1.813103e+08
2.063983e+03, 1.818457e+08
2.066047e+03, 1.664973e+08
2.068113e+03, 2.050402e+08
2.070181e+03, 1.801038e+08
2.072252e+03, 3.339801e+08
2.074324e+03, 3.036959e+08
2.076398e+03, 2.970468e+08
2.078475e+03, 2.417720e+08
2.080553e+03, 3.797727e+08
2.082634e+03, 3.882355e+08
2.084716e+03, 3.652932e+08
2.086801e+03, 3.779064e+08
2.088888e+03, 4.704216e+08
2.090977e+03, 5.308732e+08
2.093068e+03, 4.994645e+08
2.095161e+03, 3.337539e+08
2.097256e+03, 4.671836e+08
2.099353e+03, 5.051665e+08
2.101452e+03, 4.642099e+08
2.103554e+03, 4.771480e+08
2.105657e+03, 4.407181e+08
2.107763e+03, 4.671407e+08
2.109871e+03, 4.567918e+08
2.111981e+03, 5.763615e+08
2.114093e+03, 5.040681e+08
2.116207e+03, 4.301045e+08
2.118323e+03, 4.699976e+08
2.120441e+03, 5.750671e+08
2.122562e+03, 6.882729e+08
2.124684e+03, 5.439433e+08
2.126809e+03, 4.907750e+08
2.128936e+03, 5.020034e+08
2.131065e+03, 6.148388e+08
2.133196e+03, 6.022876e+08
2.135329e+03, 6.013436e+08
2.137464e+03, 6.362055e+08
2.139602e+03, 6.150867e+08
2.141741e+03, 4.233214e+08
2.143883e+03, 6.496225e+08
2.146027e+03, 7.151385e+08
2.148173e+03, 4.082663e+08
2.150321e+03, 4.837358e+08
2.152472e+03, 6.215496e+08
2.154624e+03, 6.965996e+08
2.156779e+03, 7.492254e+08
2.158935e+03, 6.632411e+08
2.161094e+03, 6.434223e+08
2.163255e+03, 5.634582e+08
2.165419e+03, 6.160540e+08
2.167584e+03, 6.296964e+08
2.169752e+03, 5.689257e+08
2.171921e+03, 7.471050e+08
2.174093e+03, 7.817655e+08
2.176268e+03, 1.089526e+09
2.178444e+03, 4.256891e+08
2.180622e+03, 6.474381e+08
2.182803e+03, 6.225504e+08
2.184986e+03, 6.779931e+08
2.187171e+03, 7.784271e+08
2.189358e+03, 9.512044e+08
2.191547e+03, 9.655830e+08
2.193739e+03, 9.715322e+08
2.195932e+03, 1.116610e+09
2.198128e+03, 1.016112e+09
2.200327e+03, 6.526837e+08
2.202527e+03, 1.055320e+09
2.204729e+03, 8.346303e+08
2.206934e+03, 1.286035e+09
2.209141e+03, 1.077307e+09
2.211350e+03, 1.045424e+09
2.213562e+03, 1.405565e+09
2.215775e+03, 1.014083e+09
2.217991e+03, 8.990406e+08
2.220209e+03, 7.216484e+08
2.222429e+03, 8.256984e+08
2.224651e+03, 1.219268e+09
2.226876e+03, 9.285045e+08
2.229103e+03, 1.522036e+09
2.231332e+03, 1.233868e+09
2.233563e+03, 1.791706e+09
2.235797e+03, 2.172306e+09
2.238033e+03, 1.041370e+09
2.240271e+03, 1.445059e+09
2.242511e+03, 1.541167e+09
2.244754e+03, 1.702056e+09
2.246998e+03, 1.972849e+09
2.249245e+03, 1.918669e+09
2.251495e+03, 2.395105e+09
2.253746e+03, 2.517469e+09
2.256000e+03, 2.092896e+09
2.258256e+03, 9.719684e+08
2.260514e+03, 8.002875e+08
2.262775e+03, 1.161874e+09
2.265037e+03, 1.313334e+09
2.267302e+03, 1.531959e+09
2.269570e+03, 1.561839e+09
2.271839e+03, 1.869197e+09
2.274111e+03, 2.672252e+09
2.276385e+03, 2.150810e+09
2.278662e+03, 2.271765e+09
2.280940e+03, 2.088511e+09
2.283221e+03, 2.211218e+09
2.285504e+03, 2.267361e+09
2.287790e+03, 2.151163e+09
2.290078e+03, 2.410362e+09
2.292368e+03, 3.133292e+09
2.294660e+03, 2.970051e+09
2.296955e+03, 3.491869e+09
2.299252e+03, 2.446420e+09
2.301551e+03, 1.140119e+09
2.303853e+03, 1.496193e+09
2.306156e+03, 1.878057e+09
2.308463e+03, 2.539984e+09
2.310771e+03, 2.179922e+09
2.313082e+03, 2.990327e+09
2.315395e+03, 3.958295e+09
2.317710e+03, 4.786861e+09
2.320028e+03, 3.547222e+09
2.322348e+03, 2.734920e+09
2.324670e+03, 3.165321e+09
2.326995e+03, 3.097544e+09
2.329322e+03, 3.499107e+09
2.331651e+03, 4.695704e+09
2.333983e+03, 4.672399e+09
2.336317e+03, 4.328129e+09
2.338653e+03, 4.620533e+09
2.340992e+03, 5.699483e+09
2.343333e+03, 3.800202e+09
2.345676e+03, 1.942540e+09
2.348022e+03, 1.956121e+09
2.350370e+03, 2.705647e+09
2.352720e+03, 2.633336e+09
2.355073e+03, 2.847113e+09
2.357428e+03, 3.557998e+09
2.359786e+03, 4.361207e+09
2.362145e+03, 4.355222e+09
2.364508e+03, 5.166083e+09
2.366872e+03, 2.093993e+09
2.369239e+03, 3.108392e+09
2.371608e+03, 3.748596e+09
2.373980e+03, 3.178698e+09
2.376354e+03, 4.579873e+09
2.378730e+03, 5.048724e+09
2.381109e+03, 6.309190e+09
2.383490e+03, 6.150783e+09
2.385873e+03, 5.445595e+09
2.388259e+03, 5.372485e+09
2.390648e+03, 4.787551e+09
2.393038e+03, 4.657919e+09
2.395431e+03, 5.853573e+09
2.397827e+03, 6.868630e+09
2.400225e+03, 7.340767e+09
2.402625e+03, 8.784082e+09
2.405027e+03, 1.047553e+10
2.407432e+03, 9.423035e+09
2.409840e+03, 1.049804e+10
2.412250e+03, 7.925789e+09
2.414662e+03, 4.053410e+09
2.417077e+03, 5.150655e+09
2.419494e+03, 5.256776e+09
2.421913e+03, 6.040096e+09
2.424335e+03, 6.745243e+09
2.426759e+03, 8.260516e+09
2.429186e+03, 1.314393e+10
2.431615e+03, 1.204367e+10
2.434047e+03, 8.994689e+09
2.436481e+03, 9.498512e+09
2.438918e+03, 1.082890e+10
2.441356e+03, 1.091731e+10
2.443798e+03, 1.109045e+10
2.446242e+03, 1.280263e+10
2.448688e+03, 1.627441e+10
2.451137e+03, 1.491273e+10
2.453588e+03, 1.596196e+10
2.456041e+03, 1.934723e+10
2.458497e+03, 1.156052e+10
2.460956e+03, 8.472403e+09
2.463417e+03, 7.972224e+09
2.465880e+03, 1.164141e+10
2.468346e+03, 1.528548e+10
2.470814e+03, 1.389965e+10
2.473285e+03, 1.209541e+10
2.475758e+03, 1.877101e+10
2.478234e+03, 1.895797e+10
2.480712e+03, 1.366110e+10
2.483193e+03, 8.336443e+09
2.485676e+03, 9.553854e+09
2.488162e+03, 5.210573e+09
2.490650e+03, 5.609763e+09
2.493141e+03, 9.609786e+09
2.495634e+03, 1.153466e+10
2.498130e+03, 1.398601e+10
2.500628e+03, 1.363973e+10
2.503128e+03, 1.646502e+10
2.505632e+03, 1.689977e+10
2.508137e+03, 1.520963e+10
2.510645e+03, 9.920716e+09
2.513156e+03, 1.351875e+10
2.515669e+03, 1.292691e+10
2.518185e+03, 1.347839e+10
2.520703e+03, 1.579431e+10
2.523224e+03, 1.208962e+10
2.525747e+03, 1.935281e+10
2.528273e+03, 1.511264e+10
2.530801e+03, 1.716915e+10
2.533332e+03, 2.650720e+10
2.535865e+03, 2.583300e+10
2.538401e+03, 3.383630e+10
2.540939e+03, 2.764789e+10
2.543480e+03, 3.104073e+10
2.546024e+03, 2.489479e+10
2.548570e+03, 4.017472e+10
2.551118e+03, 3.239059e+10
2.553669e+03, 4.477366e+10
2.556223e+03, 3.528854e+10
2.558779e+03, 2.921847e+10
2.561338e+03, 3.119310e+10
2.563899e+03, 2.128002e+10
2.566463e+03, 1.824270e+10
2.569030e+03, 2.475246e+10
2.571599e+03, 3.070805e+10
2.574170e+03, 3.233181e+10
2.576745e+03, 2.766247e+10
2.579321e+03, 3.228792e+10
2.581901e+03, 2.999176e+10
2.584483e+03, 3.001340e+10
2.587067e+03, 2.699337e+10
2.589654e+03, 2.066641e+10
2.592244e+03, 2.698568e+10
2.594836e+03, 3.007256e+10
2.597431e+03, 4.242669e+10
2.600028e+03, 3.376287e+10
2.602628e+03, 4.314596e+10
2.605231e+03, 4.951983e+10
2.607836e+03, 3.817923e+10
2.610444e+03, 4.363587e+10
2.613054e+03, 3.519083e+10
2.615667e+03, 4.056277e+10
2.618283e+03, 4.380620e+10
2.620901e+03, 4.972729e+10
2.623522e+03, 5.036874e+10
2.626146e+03, 6.399518e+10
2.628772e+03, 5.929939e+10
2.631401e+03, 6.951155e+10
2.634032e+03, 7.530788e+10
2.636666e+03, 8.357891e+10
2.639303e+03, 1.103353e+11
2.641942e+03, 8.230442e+10
2.644584e+03, 6.760395e+10
2.647229e+03, 5.009756e+10
2.649876e+03, 7.015169e+10
2.652526e+03, 6.628425e+10
2.655178e+03, 1.002350e+11
2.657834e+03, 9.477218e+10
2.660491e+03, 7.783537e+10
2.663152e+03, 9.105389e+10
2.665815e+03, 7.294939e+10
2.668481e+03, 7.084737e+10
2.671149e+03, 5.264405e+10
2.673820e+03, 7.647498e+10
2.676494e+03, 9.200099e+10
2.679171e+03, 8.025845e+10
2.681850e+03, 8.161514e+10
2.684532e+03, 9.868410e+10
2.687216e+03, 1.013239e+11
2.689904e+03, 7.630527e+10
2.692593e+03, 7.216817e+10
2.695286e+03, 6.397115e+10
2.697981e+03, 7.051171e+10
2.700679e+03, 9.363503e+10
2.703380e+03, 9.522512e+10
2.706083e+03, 1.243801e+11
2.708789e+03, 1.128129e+11
2.711498e+03, 1.144426e+11
2.714210e+03, 1.012330e+11
2.716924e+03, 9.336164e+10
2.719641e+03, 5.283858e+10
2.722360e+03, 6.300730e+10
2.725083e+03, 7.640837e+10
2.727808e+03, 1.000299e+11
2.730536e+03, 1.013969e+11
2.733266e+03, 9.031296e+10
2.736000e+03, 8.339373e+10
2.738736e+03, 9.136785e+10
2.741474e+03, 1.136897e+11
2.744216e+03, 7.341870e+10
2.746960e+03, 1.295660e+11
2.749707e+03, 1.049014e+11
2.752457e+03, 1.283310e+11
2.755209e+03, 1.159488e+11
2.757964e+03, 9.878604e+10
2.760722e+03, 1.448253e+11
2.763483e+03, 1.361814e+11
2.766246e+03, 2.025970e+11
2.769013e+03, 1.495421e+11
2.771782e+03, 1.742923e+11
2.774554e+03, 1.923467e+11
2.777328e+03, 1.989521e+11
2.780105e+03, 1.218969e+11
2.782886e+03, 1.244072e+11
2.785668e+03, 1.789453e+11
2.788454e+03, 1.457582e+11
2.791243e+03, 2.100002e+11
2.794034e+03, 2.116231e+11
2.796828e+03, 1.461042e+11
2.799625e+03, 1.535430e+11
2.802424e+03, 1.502501e+11
2.805227e+03, 2.154912e+11
2.808032e+03, 1.582165e+11
2.810840e+03, 2.201767e+11
2.813651e+03, 2.097342e+11
2.816464e+03, 2.742134e+11
2.819281e+03, 2.523062e+11
2.822100e+03, 1.968108e+11
2.824922e+03, 2.215767e+11
2.827747e+03, 1.897322e+11
2.830575e+03, 2.274458e+11
2.833406e+03, 1.831300e+11
2.836239e+03, 1.789280e+11
2.839075e+03, 1.896908e+11
2.841914e+03, 1.852717e+11
2.844756e+03, 1.519463e+11
2.847601e+03, 1.267688e+11
2.850448e+03, 8.895686e+10
2.853299e+03, 3.571876e+10
2.856152e+03, 1.136386e+11
2.859008e+03, 1.540843e+11
2.861867e+03, 1.901596e+11
2.864729e+03, 2.014124e+11
2.867594e+03, 2.288382e+11
2.870462e+03, 2.545662e+11
2.873332e+03, 2.306889e+11
2.876205e+03, 2.358486e+11
2.879082e+03, 2.770472e+11
2.881961e+03, 2.633141e+11
2.884843e+03, 3.867939e+11
2.887727e+03, 4.317475e+11
2.890615e+03, 4.746876e+11
2.893506e+03, 4.522876e+11
2.896399e+03, 4.197615e+11
2.899296e+03, 4.414033e+11
2.902195e+03, 4.117632e+11
2.905097e+03, 5.267777e+11
2.908002e+03, 5.659446e+11
2.910910e+03, 4.920979e+11
2.913821e+03, 4.791116e+11
2.916735e+03, 7.330055e+11
2.919652e+03, 6.173156e+11
2.922571e+03, 6.553316e+11
2.925494e+03, 6.085834e+11
2.928420e+03, 3.447174e+11
2.931348e+03, 4.741982e+11
2.934279e+03, 5.832617e+11
2.937214e+03, 3.208551e+11
2.940151e+03, 5.533190e+11
2.943091e+03, 3.606586e+11
2.946034e+03, 4.785908e+11
2.948980e+03, 3.193189e+11
2.951929e+03, 6.385336e+11
2.954881e+03, 3.536875e+11
2.957836e+03, 3.269729e+11
2.960794e+03, 6.812190e+11
2.963754e+03, 6.122290e+11
2.966718e+03, 2.526277e+11
2.969685e+03, 3.013560e+11
2.972655e+03, 3.080320e+11
2.975627e+03, 3.944974e+11
2.978603e+03, 6.589249e+11
2.981581e+03, 4.841097e+11
2.984563e+03, 2.962359e+11
2.987548e+03, 4.377246e+11
2.990535e+03, 7.176954e+11
2.993526e+03, 4.527021e+11
2.996519e+03, 3.439283e+11
2.999516e+03, 4.369679e+11
3.002515e+03, 2.640727e+11
3.005518e+03, 4.678857e+11
3.008523e+03, 2.974564e+11
3.011532e+03, 5.759029e+11
3.014543e+03, 6.048649e+11
3.017558e+03, 4.903120e+11
3.020575e+03, 2.130403e+11
3.023596e+03, 3.664817e+11
3.026620e+03, 3.515581e+11
3.029646e+03, 7.667586e+11
3.032676e+03, 8.900267e+11
3.035709e+03, 8.953558e+11
3.038744e+03, 4.680552e+11
3.041783e+03, 6.485403e+11
3.044825e+03, 7.792690e+11
3.047870e+03, 4.983946e+11
3.050918e+03, 6.382020e+11
3.053968e+03, 8.116320e+11
3.057022e+03, 6.632707e+11
3.060079e+03, 4.473994e+11
3.063140e+03, 1.063379e+12
3.066203e+03, 1.283965e+12
3.069269e+03, 1.261332e+12
3.072338e+03, 1.529493e+12
3.075410e+03, 1.078984e+12
3.078486e+03, 1.375457e+12
3.081564e+03, 8.074876e+11
3.084646e+03, 7.395312e+11
3.087731e+03, 1.390555e+12
3.090818e+03, 1.019617e+12
3.093909e+03, 4.792199e+11
3.097003e+03, 1.010868e+12
3.100100e+03, 9.691770e+11
3.103200e+03, 9.407135e+11
3.106303e+03, 1.894391e+12
3.109410e+03, 2.297365e+12
3.112519e+03, 2.073240e+12
3.115632e+03, 2.052434e+12
3.118747e+03, 1.888849e+12
3.121866e+03, 2.028784e+12
3.124988e+03, 2.550591e+12
3.128113e+03, 2.816150e+12
3.131241e+03, 1.879027e+12
3.134372e+03, 1.458797e+12
3.137507e+03, 2.590540e+12
3.140644e+03, 2.734105e+12
3.143785e+03, 2.660604e+12
3.146928e+03, 2.420351e+12
3.150075e+03, 3.064898e+12
3.153225e+03, 2.752533e+12
3.156379e+03, 3.089432e+12
3.159535e+03, 2.119338e+12
3.162695e+03, 2.093607e+12
3.165857e+03, 2.747895e+12
3.169023e+03, 3.064857e+12
3.172192e+03, 3.194227e+12
3.175364e+03, 4.022064e+12
3.178540e+03, 3.766478e+12
3.181718e+03, 2.336614e+12
3.184900e+03, 1.494079e+12
3.188085e+03, 2.617444e+12
3.191273e+03, 2.192811e+12
3.194464e+03, 1.969237e+12
3.197659e+03, 2.385079e+12
3.200856e+03, 2.026757e+12
3.204057e+03, 3.716936e+12
3.207261e+03, 3.881405e+12
3.210469e+03, 3.257571e+12
3.213679e+03, 2.304088e+12
3.216893e+03, 2.409212e+12
3.220110e+03, 3.230300e+12
3.223330e+03, 2.552318e+12
3.226553e+03, 2.134635e+12
3.229780e+03, 2.412609e+12
3.233009e+03, 2.980192e+12
3.236242e+03, 2.170520e+12
3.239479e+03, 3.721305e+12
3.242718e+03, 3.329853e+12
3.245961e+03, 3.166179e+12
3.249207e+03, 2.583862e+12
3.252456e+03, 3.798567e+12
3.255708e+03, 4.501513e+12
3.258964e+03, 5.139851e+12
3.262223e+03, 5.140059e+12
3.265485e+03, 3.917340e+12
3.268751e+03, 6.094724e+12
3.272020e+03, 3.845106e+12
3.275292e+03, 3.848581e+12
3.278567e+03, 5.529929e+12
3.281845e+03, 5.272840e+12
3.285127e+03, 4.468434e+12
3.288412e+03, 4.460965e+12
3.291701e+03, 6.048160e+12
3.294993e+03, 6.878656e+12
3.298288e+03, 6.229641e+12
3.301586e+03, 6.194696e+12
3.304887e+03, 4.379409e+12
3.308192e+03, 3.789863e+12
3.311500e+03, 5.155960e+12
3.314812e+03, 4.403656e+12
3.318127e+03, 4.519368e+12
3.321445e+03, 5.253370e+12
3.324766e+03, 4.290206e+12
3.328091e+03, 6.643268e+12
3.331419e+03, 5.282537e+12
3.334751e+03, 4.089525e+12
3.338085e+03, 4.476103e+12
3.341423e+03, 4.376134e+12
3.344765e+03, 4.721385e+12
3.348110e+03, 6.102859e+12
3.351458e+03, 2.706442e+12
3.354809e+03, 4.739316e+12
3.358164e+03, 4.816186e+12
3.361522e+03, 1.408081e+12
3.364884e+03, 5.290190e+12
3.368249e+03, 3.426506e+12
3.371617e+03, 1.615699e+12
3.374988e+03, 3.466021e+12
3.378363e+03, 4.456123e+12
3.381742e+03, 3.015796e+12
3.385124e+03, 4.559850e+12
3.388509e+03, 4.362373e+12
3.391897e+03, 3.590909e+12
3.395289e+03, 3.795511e+12
3.398684e+03, 5.571418e+12
3.402083e+03, 5.873095e+12
3.405485e+03, 4.474519e+12
3.408891e+03, 4.294312e+12
3.412300e+03, 4.153007e+12
3.415712e+03, 1.901512e+12
3.419128e+03, 4.719431e+12
3.422547e+03, 5.826952e+12
3.425969e+03, 4.142004e+12
3.429395e+03, 5.708966e+12
3.432825e+03, 4.127388e+12
3.436257e+03, 3.879353e+12
3.439694e+03, 2.172556e+12
3.443133e+03, 1.290101e+12
3.446576e+03, 2.032479e+12
3.450023e+03, 4.954464e+12
3.453473e+03, 3.337505e+12
3.456927e+03, 5.598216e+12
3.460383e+03, 3.786806e+12
3.463844e+03, 3.956799e+12
3.467308e+03, 2.696563e+12
3.470775e+03, 5.715897e+12
3.474246e+03, 4.170672e+12
3.477720e+03, 2.334795e+12
3.481198e+03, 7.090761e+12
3.484679e+03, 6.300256e+12
3.488164e+03, 6.366750e+12
3.491652e+03, 2.330762e+12
3.495143e+03, 3.883331e+12
3.498639e+03, 3.586094e+12
3.502137e+03, 5.885625e+12
3.505639e+03, 9.493929e+12
3.509145e+03, 8.284537e+12
3.512654e+03, 4.977119e+12
3.516167e+03, 3.365935e+12
3.519683e+03, 6.715454e+12
3.523203e+03, 3.672865e+12
3.526726e+03, 2.159267e+12
3.530253e+03, 6.247197e+12
3.533783e+03, 7.943325e+12
3.537317e+03, 8.941897e+12
3.540854e+03, 1.000431e+13
3.544395e+03, 1.060177e+13
3.547939e+03, 8.058655e+12
3.551487e+03, 9.285500e+12
3.555039e+03, 6.780322e+12
3.558594e+03, 5.849286e+12
3.562152e+03, 7.357156e+12
3.565714e+03, 3.865288e+12
3.569280e+03, 3.505913e+12
3.572849e+03, 3.634203e+12
3.576422e+03, 4.171745e+12
3.579999e+03, 2.020714e+12
3.583579e+03, 2.908579e+12
3.587162e+03, 2.522965e+12
3.590749e+03, 5.374560e+12
3.594340e+03, 2.762604e+12
3.597934e+03, 5.841342e+12
3.601532e+03, 8.267088e+12
3.605134e+03, 3.512032e+12
3.608739e+03, 3.162967e+12
3.612348e+03, 5.225217e+12
3.615960e+03, 7.756590e+12
3.619576e+03, 3.407304e+12
3.623196e+03, 6.396773e+12
3.626819e+03, 9.124032e+12
3.630446e+03, 6.346018e+12
3.634076e+03, 4.958709e+12
3.637710e+03, 6.295026e+12
3.641348e+03, 9.810985e+12
3.644989e+03, 4.597394e+12
3.648634e+03, 3.203110e+12
3.652283e+03, 6.582317e+12
3.655935e+03, 8.129798e+12
3.659591e+03, 1.269928e+13
3.663251e+03, 1.252576e+13
3.666914e+03, 1.355500e+13
3.670581e+03, 1.036453e+13
3.674251e+03, 1.153402e+13
3.677926e+03, 9.391599e+12
3.681604e+03, 5.078177e+12
3.685285e+03, 8.189982e+12
3.688971e+03, 6.249302e+12
3.692660e+03, 1.254239e+13
3.696352e+03, 1.154405e+13
3.700049e+03, 1.340162e+13
3.703749e+03, 7.952768e+12
3.707452e+03, 3.527801e+12
3.711160e+03, 6.180309e+12
3.714871e+03, 9.197753e+12
3.718586e+03, 4.087570e+12
3.722304e+03, 1.958602e+12
3.726027e+03, 5.696477e+12
3.729753e+03, 4.721258e+12
3.733482e+03, 3.669911e+12
3.737216e+03, 1.963695e+12
3.740953e+03, 4.393376e+12
3.744694e+03, 3.669005e+12
3.748439e+03, 2.243422e+12
3.752187e+03, 4.378774e+12
3.755939e+03, 7.913733e+12
3.759695e+03, 4.778682e+12
3.763455e+03, 6.579857e+12
3.767219e+03, 5.504989e+12
3.770986e+03, 1.170637e+13
3.774757e+03, 1.479431e+13
3.778532e+03, 1.332328e+13
3.782310e+03, 1.656775e+13
3.786092e+03, 1.129957e+13
3.789878e+03, 7.039274e+12
3.793668e+03, 1.123809e+13
3.797462e+03, 8.276302e+12
3.801259e+03, 7.726663e+12
3.805061e+03, 1.458633e+13
3.808866e+03, 1.114572e+13
3.812675e+03, 1.110662e+13
3.816487e+03, 6.276646e+12
3.820304e+03, 4.968320e+12
3.824124e+03, 4.247327e+12
3.827948e+03, 3.863785e+12
3.831776e+03, 6.043264e+12
3.835608e+03, 5.795174e+12
3.839444e+03, 5.993164e+12
3.843283e+03, 7.641948e+12
3.847126e+03, 1.150467e+13
3.850973e+03, 8.322470e+12
3.854824e+03, 8.594440e+12
3.858679e+03, 3.470162e+12
3.862538e+03, 4.744325e+12
3.866400e+03, 7.854974e+12
3.870267e+03, 1.227475e+13
3.874137e+03, 8.785403e+12
3.878011e+03, 6.034133e+12
3.881889e+03, 9.357200e+12
3.885771e+03, 6.153717e+12
3.889657e+03, 6.778941e+12
3.893547e+03, 1.241194e+13
3.897440e+03, 7.402775e+12
3.901338e+03, 7.503350e+12
3.905239e+03, 9.098202e+12
3.909144e+03, 1.082390e+13
3.913053e+03, 1.604254e+13
3.916966e+03, 1.369072e+13
3.920883e+03, 7.122026e+12
3.924804e+03, 6.906598e+12
3.928729e+03, 6.249271e+12
3.932658e+03, 3.678846e+12
3.936590e+03, 4.516676e+12
3.940527e+03, 9.439227e+12
3.944467e+03, 4.831139e+12
3.948412e+03, 8.104836e+12
3.952360e+03, 1.309844e+13
3.956313e+03, 1.215460e+13
3.960269e+03, 6.525921e+12
3.964229e+03, 4.883115e+12
3.968194e+03, 4.699539e+12
3.972162e+03, 7.293237e+12
3.976134e+03, 1.287502e+13
3.980110e+03, 1.813828e+13
3.984090e+03, 1.438248e+13
3.988074e+03, 2.101884e+13
3.992062e+03, 1.695171e+13
3.996054e+03, 2.217936e+13
4.000050e+03, 1.618774e+13
4.004050e+03, 2.383713e+13
4.008055e+03, 1.843571e+13
4.012063e+03, 1.930791e+13
4.016075e+03, 2.595028e+13
4.020091e+03, 2.302456e+13
4.024111e+03, 2.014835e+13
4.028135e+03, 2.230351e+13
4.032163e+03, 9.446679e+12
4.036195e+03, 1.262790e+13
4.040231e+03, 2.490497e+13
4.044272e+03, 1.720124e+13
4.048316e+03, 1.198887e+13
4.052364e+03, 2.541368e+13
4.056417e+03, 2.426608e+13
4.060473e+03, 2.105859e+13
4.064533e+03, 1.327537e+13
4.068598e+03, 2.190640e+13
4.072667e+03, 1.582885e+13
4.076739e+03, 2.194421e+13
4.080816e+03, 2.295537e+13
4.084897e+03, 2.417036e+13
4.088982e+03, 3.310048e+13
4.093071e+03, 2.775789e+13
4.097164e+03, 1.977111e+13
4.101261e+03, 1.579478e+13
4.105362e+03, 2.131543e+13
4.109468e+03, 2.021006e+13
4.113577e+03, 1.914681e+13
4.117691e+03, 1.878593e+13
4.121808e+03, 1.924469e+13
4.125930e+03, 2.476548e+13
4.130056e+03, 1.928879e+13
4.134186e+03, 1.435918e+13
4.138320e+03, 2.480327e+13
4.142459e+03, 1.793262e+13
4.146601e+03, 1.759345e+13
4.150748e+03, 2.268785e+13
4.154898e+03, 2.213924e+13
4.159053e+03, 2.510595e+13
4.163212e+03, 2.917197e+13
4.167376e+03, 2.038558e+13
4.171543e+03, 1.976802e+13
4.175714e+03, 1.846254e+13
4.179890e+03, 2.592224e+13
4.184070e+03, 2.156436e+13
4.188254e+03, 1.995112e+13
4.192442e+03, 2.351247e+13
4.196635e+03, 2.313629e+13
4.200831e+03, 1.559012e+13
4.205032e+03, 1.727527e+13
4.209237e+03, 1.935009e+13
4.213447e+03, 1.691057e+13
4.217660e+03, 1.251586e+13
4.221878e+03, 9.359674e+12
4.226100e+03, 4.750022e+12
4.230326e+03, 5.627967e+12
4.234556e+03, 9.727283e+12
4.238791e+03, 1.411207e+13
4.243029e+03, 1.836408e+13
4.247272e+03, 2.133493e+13
4.251520e+03, 1.574789e+13
4.255771e+03, 1.045530e+13
4.260027e+03, 1.807268e+13
4.264287e+03, 2.495887e+13
4.268551e+03, 2.360831e+13
4.272820e+03, 1.408983e+13
4.277093e+03, 1.294609e+13
4.281370e+03, 2.318655e+13
4.285651e+03, 1.786624e+13
4.289937e+03, 1.286343e+13
4.294227e+03, 1.813289e+13
4.298521e+03, 2.099983e+13
4.302819e+03, 1.404659e+13
4.307122e+03, 1.676073e+13
4.311429e+03, 2.442527e+13
4.315741e+03, 2.731196e+13
4.320057e+03, 2.619723e+13
4.324377e+03, 2.680009e+13
4.328701e+03, 2.375109e+13
4.333030e+03, 3.443485e+13
4.337363e+03, 3.199605e+13
4.341700e+03, 3.003182e+13
4.346042e+03, 3.043815e+13
4.350388e+03, 3.592310e+13
4.354738e+03, 2.601792e+13
4.359093e+03, 3.266014e+13
4.363452e+03, 3.786927e+13
4.367815e+03, 3.784121e+13
4.372183e+03, 3.368189e+13
4.376555e+03, 2.650765e+13
4.380932e+03, 2.747572e+13
4.385313e+03, 1.594796e+13
4.389698e+03, 2.874930e+13
4.394088e+03, 3.318666e+13
4.398482e+03, 3.700020e+13
4.402881e+03, 3.045271e+13
4.407283e+03, 1.867308e+13
4.411691e+03, 3.329149e+13
4.416102e+03, 2.767515e+13
4.420518e+03, 3.854276e+13
4.424939e+03, 2.623349e+13
4.429364e+03, 2.729893e+13
4.433793e+03, 2.942162e+13
4.438227e+03, 2.637405e+13
4.442665e+03, 3.245790e+13
4.447108e+03, 3.762058e+13
4.451555e+03, 3.412376e+13
4.456007e+03, 1.780412e+13
4.460463e+03, 2.568785e+13
4.464923e+03, 3.091298e+13
4.469388e+03, 3.629883e+13
4.473857e+03, 4.041114e+13
4.478331e+03, 4.088750e+13
4.482810e+03, 3.397025e+13
4.487292e+03, 4.174593e+13
4.491780e+03, 3.748519e+13
4.496272e+03, 3.352182e+13
4.500768e+03, 4.214250e+13
4.505269e+03, 4.522604e+13
4.509774e+03, 4.366516e+13
4.514284e+03, 3.893049e+13
4.518798e+03, 4.092926e+13
4.523317e+03, 4.162280e+13
4.527840e+03, 3.041895e+13
4.532368e+03, 3.175104e+13
4.536900e+03, 2.668691e+13
4.541437e+03, 4.090724e+13
4.545979e+03, 3.791668e+13
4.550525e+03, 3.949256e+13
4.555075e+03, 3.481220e+13
4.559630e+03, 4.545199e+13
4.564190e+03, 4.624402e+13
4.568754e+03, 4.609090e+13
4.573323e+03, 4.160692e+13
4.577896e+03, 4.216360e+13
4.582474e+03, 3.667936e+13
4.587056e+03, 3.578328e+13
4.591643e+03, 4.074698e+13
4.596235e+03, 3.794542e+13
4.600831e+03, 3.991131e+13
4.605432e+03, 4.080579e+13
4.610038e+03, 4.311850e+13
4.614648e+03, 4.408123e+13
4.619262e+03, 3.994051e+13
4.623882e+03, 4.354278e+13
4.628505e+03, 3.914608e+13
4.633134e+03, 4.200015e+13
4.637767e+03, 4.111274e+13
4.642405e+03, 4.157839e+13
4.647047e+03, 3.687952e+13
4.651694e+03, 3.580883e+13
4.656346e+03, 3.930386e+13
4.661002e+03, 4.862893e+13
4.665663e+03, 4.442077e+13
4.670329e+03, 3.666361e+13
4.674999e+03, 4.188011e+13
4.679674e+03, 4.369608e+13
4.684354e+03, 3.706323e+13
4.689038e+03, 4.208596e+13
4.693727e+03, 4.256685e+13
4.698421e+03, 4.199805e+13
4.703120e+03, 4.149202e+13
4.707823e+03, 4.348080e+13
4.712530e+03, 3.914763e+13
4.717243e+03, 3.611567e+13
4.721960e+03, 3.919820e+13
4.726682e+03, 4.106121e+13
4.731409e+03, 3.848816e+13
4.736140e+03, 3.898562e+13
4.740876e+03, 3.920033e+13
4.745617e+03, 3.827757e+13
4.750363e+03, 4.228549e+13
4.755113e+03, 3.676848e+13
4.759868e+03, 3.382904e+13
4.764628e+03, 2.994197e+13
4.769393e+03, 2.914946e+13
4.774162e+03, 3.098862e+13
4.778936e+03, 3.111851e+13
4.783715e+03, 3.287514e+13
4.788499e+03, 3.101369e+13
4.793288e+03, 3.525707e+13
4.798081e+03, 4.018335e+13
4.802879e+03, 3.846634e+13
4.807682e+03, 3.772995e+13
4.812490e+03, 3.760367e+13
4.817302e+03, 3.927029e+13
4.822119e+03, 4.045880e+13
4.826941e+03, 3.776311e+13
4.831768e+03, 3.835928e+13
4.836600e+03, 4.240703e+13
4.841437e+03, 3.902175e+13
4.846278e+03, 4.336808e+13
4.851124e+03, 4.365894e+13
4.855976e+03, 4.546540e+13
4.860832e+03, 4.579777e+13
4.865692e+03, 4.660549e+13
4.870558e+03, 4.317767e+13
4.875429e+03, 4.305167e+13
4.880304e+03, 4.478150e+13
4.885184e+03, 4.509326e+13
4.890070e+03, 4.273510e+13
4.894960e+03, 4.674340e+13
4.899855e+03, 4.786262e+13
4.904754e+03, 4.662541e+13
4.909659e+03, 4.698936e+13
4.914569e+03, 4.774443e+13
4.919483e+03, 4.401903e+13
4.924403e+03, 4.612559e+13
4.929327e+03, 4.676403e+13
4.934257e+03, 4.970750e+13
4.939191e+03, 4.579931e+13
4.944130e+03, 4.812051e+13
4.949074e+03, 4.594295e+13
4.954023e+03, 4.920640e+13
4.958977e+03, 3.073757e+13
4.963936e+03, 3.317316e+13
4.968900e+03, 3.435189e+13
4.973869e+03, 3.670347e+13
4.978843e+03, 3.635892e+13
4.983822e+03, 3.261986e+13
4.988806e+03, 3.702600e+13
4.993794e+03, 3.467358e+13
4.998788e+03, 3.520184e+13
5.003787e+03, 3.167611e+13
5.008791e+03, 2.865192e+13
5.013800e+03, 3.128632e+13
5.018813e+03, 3.418325e+13
5.023832e+03, 2.999887e+13
5.028856e+03, 3.299563e+13
5.033885e+03, 4.076871e+13
5.038919e+03, 3.203352e+13
5.043958e+03, 2.953175e+13
5.049002e+03, 3.627777e+13
5.054051e+03, 3.682934e+13
5.059105e+03, 3.601412e+13
5.064164e+03, 3.193923e+13
5.069228e+03, 3.291135e+13
5.074297e+03, 3.659709e+13
5.079372e+03, 3.417828e+13
5.084451e+03, 3.432912e+13
5.089535e+03, 3.512417e+13
5.094625e+03, 3.577861e+13
5.099720e+03, 3.277683e+13
5.104819e+03, 3.652109e+13
5.109924e+03, 3.312153e+13
5.115034e+03, 4.052322e+13
5.120149e+03, 3.433707e+13
5.125269e+03, 3.369099e+13
5.130394e+03, 3.074217e+13
5.135525e+03, 4.138471e+13
5.140660e+03, 3.773314e+13
5.145801e+03, 3.243347e+13
5.150947e+03, 3.298979e+13
5.156098e+03, 3.090774e+13
5.161254e+03, 4.772859e+13
5.166415e+03, 3.624968e+13
5.171582e+03, 2.293546e+13
5.176753e+03, 2.641877e+13
5.181930e+03, 2.444881e+13
5.187112e+03, 3.170045e+13
5.192299e+03, 3.473501e+13
5.197491e+03, 3.972050e+13
5.202689e+03, 3.879825e+13
5.207891e+03, 2.095555e+13
5.213099e+03, 3.875431e+13
5.218312e+03, 5.169733e+13
5.223531e+03, 5.346564e+13
5.228754e+03, 4.502862e+13
5.233983e+03, 5.533327e+13
5.239217e+03, 5.915330e+13
5.244456e+03, 5.646224e+13
5.249701e+03, 4.961754e+13
5.254950e+03, 5.527608e+13
5.260205e+03, 5.902236e+13
5.265465e+03, 3.614185e+13
5.270731e+03, 3.596235e+13
5.276002e+03, 5.342546e+13
5.281278e+03, 6.016469e+13
5.286559e+03, 6.123085e+13
5.291846e+03, 6.498701e+13
5.297137e+03, 5.422085e+13
5.302435e+03, 5.738646e+13
5.307737e+03, 6.733089e+13
5.313045e+03, 6.479202e+13
5.318358e+03, 6.557039e+13
5.323676e+03, 5.918423e+13
5.329000e+03, 4.050177e+13
5.334329e+03, 6.066752e+13
5.339663e+03, 6.216541e+13
5.345003e+03, 5.486030e+13
5.350348e+03, 5.633428e+13
5.355698e+03, 6.796607e+13
5.361054e+03, 6.720293e+13
5.366415e+03, 6.011356e+13
5.371781e+03, 5.047758e+13
5.377153e+03, 6.497226e+13
5.382530e+03, 6.620675e+13
5.387913e+03, 6.640837e+13
5.393301e+03, 6.153777e+13
5.398694e+03, 5.298706e+13
5.404093e+03, 5.925433e+13
5.409497e+03, 4.837141e+13
5.414906e+03, 6.406764e+13
5.420321e+03, 6.713295e+13
5.425741e+03, 6.451535e+13
5.431167e+03, 5.681456e+13
5.436598e+03, 5.578016e+13
5.442035e+03, 6.807127e+13
5.447477e+03, 5.466773e+13
5.452924e+03, 5.366501e+13
5.458377e+03, 5.012124e+13
5.463836e+03, 5.606021e+13
5.469300e+03, 5.896331e+13
5.474769e+03, 5.806258e+13
5.480244e+03, 5.593400e+13
5.485724e+03, 6.101332e+13
5.491210e+03, 6.012920e+13
5.496701e+03, 5.787688e+13
5.502198e+03, 5.754352e+13
5.507700e+03, 5.727038e+13
5.513207e+03, 5.318373e+13
5.518721e+03, 6.003237e+13
5.524239e+03, 6.531387e+13
5.529764e+03, 6.282629e+13
5.535293e+03, 6.385683e+13
5.540829e+03, 6.701046e+13
5.546370e+03, 6.476577e+13
5.551916e+03, 6.831599e+13
5.557468e+03, 6.771914e+13
5.563025e+03, 6.674474e+13
5.568588e+03, 6.314935e+13
5.574157e+03, 6.556585e+13
5.579731e+03, 6.829759e+13
5.585311e+03, 6.299328e+13
5.590896e+03, 5.050788e+13
5.596487e+03, 5.691541e+13
5.602083e+03, 4.722585e+13
5.607686e+03, 6.364767e+13
5.613293e+03, 6.444707e+13
5.618907e+03, 5.757222e+13
5.624525e+03, 6.243235e+13
5.630150e+03, 6.369232e+13
5.635780e+03, 6.761690e+13
5.641416e+03, 6.618748e+13
5.647057e+03, 6.552410e+13
5.652704e+03, 7.019517e+13
5.658357e+03, 6.788934e+13
5.664015e+03, 6.430731e+13
5.669679e+03, 6.779838e+13
5.675349e+03, 6.819755e+13
5.681024e+03, 7.207506e+13
5.686705e+03, 6.725075e+13
5.692392e+03, 6.956379e+13
5.698085e+03, 7.044541e+13
5.703783e+03, 6.842905e+13
5.709486e+03, 6.843706e+13
5.715196e+03, 6.943490e+13
5.720911e+03, 7.488065e+13
5.726632e+03, 7.228210e+13
5.732359e+03, 7.494197e+13
5.738091e+03, 7.598539e+13
5.743829e+03, 7.592286e+13
5.749573e+03, 7.770341e+13
5.755323e+03, 7.720608e+13
5.761078e+03, 7.401328e+13
5.766839e+03, 7.307541e+13
5.772606e+03, 7.549719e+13
5.778378e+03, 7.478657e+13
5.784157e+03, 7.132375e+13
5.789941e+03, 7.236881e+13
5.795731e+03, 7.794658e+13
5.801527e+03, 7.772601e+13
5.807328e+03, 7.766257e+13
5.813135e+03, 7.452873e+13
5.818949e+03, 7.540054e+13
5.824768e+03, 7.704585e+13
5.830592e+03, 7.717666e+13
5.836423e+03, 7.676410e+13
5.842259e+03, 7.613242e+13
5.848102e+03, 7.570088e+13
5.853950e+03, 7.154303e+13
5.859804e+03, 6.454859e+13
5.865663e+03, 6.781941e+13
5.871529e+03, 6.827102e+13
5.877401e+03, 6.359206e+13
5.883278e+03, 5.429339e+13
5.889161e+03, 3.096922e+13
5.895050e+03, 2.630281e+13
5.900945e+03, 3.942763e+13
5.906846e+03, 5.765083e+13
5.912753e+03, 6.323759e+13
5.918666e+03, 6.438000e+13
5.924585e+03, 6.537972e+13
5.930509e+03, 6.768533e+13
5.936440e+03, 6.964472e+13
5.942376e+03, 6.911156e+13
5.948319e+03, 6.917816e+13
5.954267e+03, 6.881001e+13
5.960221e+03, 6.908073e+13
5.966181e+03, 7.034395e+13
5.972148e+03, 7.143903e+13
5.978120e+03, 6.983282e+13
5.984098e+03, 7.200026e+13
5.990082e+03, 7.441944e+13
5.996072e+03, 7.439541e+13
6.002068e+03, 7.361234e+13
6.008070e+03, 7.325098e+13
6.014078e+03, 7.530371e+13
6.020092e+03, 7.435205e+13
6.026112e+03, 7.495791e+13
6.032139e+03, 7.919688e+13
6.038171e+03, 8.043320e+13
6.044209e+03, 7.889698e+13
6.050253e+03, 8.157203e+13
6.056303e+03, 8.060882e+13
6.062360e+03, 8.032408e+13
6.068422e+03, 7.923147e+13
6.074490e+03, 8.418777e+13
6.080565e+03, 8.275525e+13
6.086645e+03, 8.255888e+13
6.092732e+03, 8.051429e+13
6.098825e+03, 8.273848e+13
6.104924e+03, 7.057015e+13
6.111029e+03, 8.052556e+13
6.117140e+03, 8.416970e+13
6.123257e+03, 6.445792e+13
6.129380e+03, 8.024976e+13
6.135509e+03, 8.063052e+13
6.141645e+03, 7.923435e+13
6.147787e+03, 8.416094e+13
6.153934e+03, 7.938692e+13
6.160088e+03, 6.818436e+13
6.166248e+03, 5.294221e+13
6.172415e+03, 6.189919e+13
6.178587e+03, 7.276477e+13
6.184766e+03, 7.358439e+13
6.190950e+03, 6.558476e+13
6.197141e+03, 6.975743e+13
6.203338e+03, 6.932332e+13
6.209542e+03, 7.146885e+13
6.215751e+03, 6.241941e+13
6.221967e+03, 6.402601e+13
6.228189e+03, 6.121500e+13
6.234417e+03, 6.258538e+13
6.240652e+03, 6.320131e+13
6.246892e+03, 6.325384e+13
6.253139e+03, 6.525615e+13
6.259392e+03, 6.170355e+13
6.265652e+03, 6.692713e+13
6.271917e+03, 7.051276e+13
6.278189e+03, 6.909215e+13
6.284467e+03, 6.986912e+13
6.290752e+03, 7.139672e+13
6.297043e+03, 6.848349e+13
6.303340e+03, 7.198792e+13
6.309643e+03, 7.111950e+13
6.315953e+03, 7.414214e+13
6.322269e+03, 7.170685e+13
6.328591e+03, 7.541692e+13
6.334920e+03, 7.437656e+13
6.341254e+03, 7.799068e+13
6.347596e+03, 7.958055e+13
6.353943e+03, 7.873056e+13
6.360297e+03, 7.301333e+13
6.366658e+03, 7.139225e+13
6.373024e+03, 7.264504e+13
6.379397e+03, 6.776184e+13
6.385777e+03, 6.599372e+13
6.392162e+03, 6.357441e+13
6.398555e+03, 6.975964e+13
6.404953e+03, 7.179724e+13
6.411358e+03, 7.528222e+13
6.417769e+03, 7.596494e+13
6.424187e+03, 7.549400e+13
6.430611e+03, 7.553856e+13
6.437042e+03, 7.501118e+13
6.443479e+03, 6.931200e+13
6.449923e+03, 7.550320e+13
6.456372e+03, 7.859835e+13
6.462829e+03, 6.606927e+13
6.469292e+03, 8.253900e+13
6.475761e+03, 8.037215e+13
6.482237e+03, 8.416524e+13
6.488719e+03, 8.312420e+13
6.495208e+03, 6.833419e+13
6.501703e+03, 7.596451e+13
6.508205e+03, 8.498369e+13
6.514713e+03, 8.684857e+13
6.521227e+03, 8.678876e+13
6.527749e+03, 8.814777e+13
6.534276e+03, 8.816900e+13
6.540811e+03, 8.978857e+13
6.547352e+03, 8.493077e+13
6.553899e+03, 8.554137e+13
6.560453e+03, 8.605172e+13
6.567013e+03, 8.672710e+13
6.573580e+03, 8.175342e+13
6.580154e+03, 8.597199e+13
6.586734e+03, 8.733671e+13
6.593321e+03, 8.457342e+13
6.599914e+03, 8.808545e+13
6.606514e+03, 8.826309e+13
6.613120e+03, 8.617312e+13
6.619734e+03, 8.672980e+13
6.626353e+03, 8.654626e+13
6.632980e+03, 8.575793e+13
6.639613e+03, 8.745783e+13
6.646252e+03, 8.634064e+13
6.652899e+03, 8.167981e+13
6.659551e+03, 8.111765e+13
6.666211e+03, 7.950033e+13
6.672877e+03, 8.373191e+13
6.679550e+03, 7.886258e+13
6.686230e+03, 7.487980e+13
6.692916e+03, 7.741233e+13
6.699609e+03, 7.824216e+13
6.706308e+03, 7.475887e+13
6.713015e+03, 7.294714e+13
6.719728e+03, 6.633733e+13
6.726447e+03, 6.888915e+13
6.733174e+03, 7.060522e+13
6.739907e+03, 7.067233e+13
6.746647e+03, 6.864145e+13
6.753394e+03, 6.651404e+13
6.760147e+03, 6.924720e+13
6.766907e+03, 6.967194e+13
6.773674e+03, 7.183267e+13
6.780448e+03, 6.953887e+13
6.787228e+03, 6.585254e+13
6.794015e+03, 6.610528e+13
6.800809e+03, 6.659780e+13
6.807610e+03, 6.836327e+13
6.814418e+03, 6.808759e+13
6.821232e+03, 6.657459e+13
6.828053e+03, 6.622881e+13
6.834882e+03, 6.608112e+13
6.841716e+03, 6.417494e+13
6.848558e+03, 6.489830e+13
6.855407e+03, 6.225333e+13
6.862262e+03, 5.933715e+13
6.869124e+03, 6.328407e+13
6.875994e+03, 6.484567e+13
6.882869e+03, 6.407154e+13
6.889752e+03, 6.317252e+13
6.896642e+03, 6.689822e+13
6.903539e+03, 6.585125e+13
6.910442e+03, 7.075522e+13
6.917353e+03, 6.792781e+13
6.924270e+03, 7.300417e+13
6.931194e+03, 7.579984e+13
6.938126e+03, 7.545337e+13
6.945064e+03, 7.758725e+13
6.952009e+03, 7.972577e+13
6.958961e+03, 7.924684e+13
6.965920e+03, 7.995678e+13
6.972886e+03, 7.974968e+13
6.979859e+03, 7.664275e+13
6.986838e+03, 8.239440e+13
6.993825e+03, 7.830505e+13
7.000819e+03, 8.102737e+13
7.007820e+03, 8.189520e+13
7.014828e+03, 8.262529e+13
7.021843e+03, 8.327023e+13
7.028864e+03, 8.907601e+13
7.035893e+03, 8.539908e+13
7.042929e+03, 9.487123e+13
7.049972e+03, 9.816610e+13
7.057022e+03, 8.456808e+13
7.064079e+03, 7.988709e+13
7.071143e+03, 8.423411e+13
7.078214e+03, 8.623220e+13
7.085292e+03, 8.580260e+13
7.092378e+03, 7.201471e+13
7.099470e+03, 7.501186e+13
7.106570e+03, 7.803936e+13
7.113676e+03, 7.865806e+13
7.120790e+03, 8.265848e+13
7.127911e+03, 7.045582e+13
7.135039e+03, 6.715460e+13
7.142174e+03, 6.885290e+13
7.149316e+03, 6.385256e+13
7.156465e+03, 7.507513e+13
7.163622e+03, 7.257778e+13
7.170785e+03, 7.605533e+13
7.177956e+03, 7.834227e+13
7.185134e+03, 7.982556e+13
7.192319e+03, 7.891595e+13
7.199511e+03, 7.927987e+13
7.206711e+03, 7.511963e+13
7.213918e+03, 7.829072e+13
7.221132e+03, 8.216978e+13
7.228353e+03, 8.400367e+13
7.235581e+03, 8.524664e+13
7.242817e+03, 8.588866e+13
7.250059e+03, 8.641719e+13
7.257309e+03, 8.795154e+13
7.264567e+03, 9.041377e+13
7.271831e+03, 8.985332e+13
7.279103e+03, 9.157074e+13
7.286382e+03, 9.250145e+13
7.293669e+03, 9.198625e+13
7.300962e+03, 9.450204e+13
7.308263e+03, 9.410865e+13
7.315572e+03, 9.495367e+13
7.322887e+03, 9.531734e+13
7.330210e+03, 8.890651e+13
7.337540e+03, 9.690199e+13
7.344878e+03, 9.596844e+13
7.352223e+03, 9.666097e+13
7.359575e+03, 9.400842e+13
7.366934e+03, 9.547219e+13
7.374301e+03, 9.948096e+13
7.381676e+03, 9.922773e+13
7.389057e+03, 9.741344e+13
7.396446e+03, 9.933179e+13
7.403843e+03, 9.727516e+13
7.411247e+03, 9.893884e+13
7.418658e+03, 9.868796e+13
7.426077e+03, 9.779767e+13
7.433503e+03, 9.982387e+13
7.440936e+03, 9.994470e+13
7.448377e+03, 9.824500e+13
7.455825e+03, 1.008823e+14
7.463281e+03, 9.772232e+13
7.470745e+03, 1.010241e+14
7.478215e+03, 1.015658e+14
7.485694e+03, 1.010579e+14
7.493179e+03, 9.941110e+13
7.500672e+03, 9.955118e+13
7.508173e+03, 1.006738e+14
7.515681e+03, 9.974085e+13
7.523197e+03, 1.015521e+14
7.530720e+03, 1.005722e+14
7.538251e+03, 1.019440e+14
7.545789e+03, 1.020777e+14
7.553335e+03, 1.018145e+14
7.560888e+03, 1.018075e+14
7.568449e+03, 1.014009e+14
7.576018e+03, 1.012430e+14
7.583594e+03, 1.011872e+14
7.591177e+03, 9.795703e+13
7.598768e+03, 9.946259e+13
7.606367e+03, 9.880370e+13
7.613973e+03, 9.778220e+13
7.621587e+03, 9.879172e+13
7.629209e+03, 9.781250e+13
7.636838e+03, 9.730837e+13
7.644475e+03, 9.746745e+13
7.652120e+03, 9.708183e+13
7.659772e+03, 9.512770e+13
7.667431e+03, 8.029227e+13
7.675099e+03, 9.212352e+13
7.682774e+03, 9.218482e+13
7.690457e+03, 9.311800e+13
7.698147e+03, 8.504874e+13
7.705845e+03, 9.229316e+13
7.713551e+03, 9.202350e+13
7.721265e+03, 9.369318e+13
7.728986e+03, 9.415046e+13
7.736715e+03, 9.596935e+13
7.744452e+03, 9.447107e+13
7.752196e+03, 8.995100e+13
7.759948e+03, 9.381680e+13
7.767708e+03, 9.304678e+13
7.775476e+03, 9.473279e+13
7.783252e+03, 9.270610e+13
7.791035e+03, 9.253282e+13
7.798826e+03, 9.341498e+13
7.806625e+03, 9.566213e+13
7.814431e+03, 9.623536e+13
7.822246e+03, 9.531122e+13
7.830068e+03, 9.433386e+13
7.837898e+03, 9.198280e+13
7.845736e+03, 9.232139e+13
7.853582e+03, 9.498153e+13
7.861435e+03, 9.614127e+13
7.869297e+03, 9.612121e+13
7.877166e+03, 9.681416e+13
7.885043e+03, 9.698749e+13
7.892928e+03, 9.649696e+13
7.900821e+03, 9.775935e+13
7.908722e+03, 9.662950e+13
7.916631e+03, 9.597704e+13
7.924547e+03, 9.724667e+13
7.932472e+03, 9.791093e+13
7.940404e+03, 9.579404e+13
7.948345e+03, 9.496924e+13
7.956293e+03, 9.856401e+13
7.964249e+03, 9.869726e+13
7.972214e+03, 9.963037e+13
7.980186e+03, 9.805672e+13
7.988166e+03, 9.890663e+13
7.996154e+03, 9.888999e+13
8.004150e+03, 9.781458e+13
8.012154e+03, 9.983424e+13
8.020167e+03, 1.001044e+14
8.028187e+03, 9.805753e+13
8.036215e+03, 1.001784e+14
8.044251e+03, 9.948484e+13
8.052295e+03, 9.852206e+13
8.060348e+03, 1.002666e+14
8.068408e+03, 9.807974e+13
8.076476e+03, 9.882869e+13
8.084553e+03, 9.918017e+13
8.092637e+03, 9.991169e+13
8.100730e+03, 1.006148e+14
8.108831e+03, 1.008411e+14
8.116940e+03, 9.854909e+13
8.125057e+03, 9.972963e+13
8.133182e+03, 1.005854e+14
8.141315e+03, 1.010604e+14
8.149456e+03, 1.010733e+14
8.157606e+03, 1.012769e+14
8.165763e+03, 9.979330e+13
8.173929e+03, 1.005636e+14
8.182103e+03, 9.141313e+13
8.190285e+03, 9.673957e+13
8.198475e+03, 8.498017e+13
8.206674e+03, 9.754602e+13
8.214880e+03, 9.895678e+13
8.223095e+03, 9.785424e+13
8.231318e+03, 9.987351e+13
8.239550e+03, 9.974066e+13
8.247789e+03, 9.979519e+13
8.256037e+03, 9.911206e+13
8.264293e+03, 1.003437e+14
8.272557e+03, 9.947671e+13
8.280830e+03, 9.946676e+13
8.289111e+03, 9.911456e+13
8.297400e+03, 9.856794e+13
8.305697e+03, 9.772084e+13
8.314003e+03, 9.846871e+13
8.322317e+03, 9.868946e+13
8.330639e+03, 9.336460e+13
8.338970e+03, 9.718780e+13
8.347309e+03, 9.762673e+13
8.355656e+03, 9.785513e+13
8.364012e+03, 9.528738e+13
8.372376e+03, 9.859422e+13
8.380748e+03, 9.442305e+13
8.389129e+03, 9.027140e+13
8.397518e+03, 9.652230e+13
8.405916e+03, 9.800064e+13
8.414322e+03, 9.593151e+13
8.422736e+03, 9.657705e+13
8.431159e+03, 9.444615e+13
8.439590e+03, 8.820767e+13
8.448029e+03, 9.558907e+13
8.456477e+03, 9.301092e+13
8.464934e+03, 9.465996e+13
8.473399e+03, 9.113108e+13
8.481872e+03, 9.485907e+13
8.490354e+03, 9.538080e+13
8.498845e+03, 8.753632e+13
8.507343e+03, 9.461748e+13
8.515851e+03, 9.176540e+13
8.524367e+03, 9.343935e+13
8.532891e+03, 9.407953e+13
8.541424e+03, 8.055757e+13
8.549965e+03, 9.019618e+13
8.558515e+03, 9.527172e+13
8.567074e+03, 9.574459e+13
8.575641e+03, 9.559368e+13
8.584216e+03, 9.503327e+13
8.592801e+03, 9.614307e+13
8.601393e+03, 9.582595e+13
8.609995e+03, 9.502643e+13
8.618605e+03, 9.586065e+13
8.627223e+03, 9.597826e+13
8.635851e+03, 9.637779e+13
8.644486e+03, 9.655899e+13
8.653131e+03, 9.596992e+13
8.661784e+03, 8.301353e+13
8.670446e+03, 9.413869e+13
8.679116e+03, 9.315635e+13
8.687795e+03, 8.903690e+13
8.696483e+03, 9.366799e+13
8.705180e+03, 9.481317e+13
8.713885e+03, 9.383250e+13
8.722599e+03, 9.466356e+13
8.731321e+03, 9.583810e+13
8.740053e+03, 9.389989e+13
8.748793e+03, 9.567594e+13
8.757542e+03, 9.439904e+13
8.766299e+03, 9.426112e+13
8.775065e+03, 9.433235e+13
8.783840e+03, 9.558168e+13
8.792624e+03, 9.550216e+13
8.801417e+03, 9.495049e+13
8.810218e+03, 8.886912e+13
8.819029e+03, 9.666892e+13
8.827848e+03, 9.086285e+13
8.836675e+03, 9.552108e+13
8.845512e+03, 9.575652e+13
8.854358e+03, 9.662684e+13
8.863212e+03, 9.306853e+13
8.872075e+03, 9.131717e+13
8.880947e+03, 9.301389e+13
8.889828e+03, 9.295305e+13
8.898718e+03, 9.306514e+13
8.907617e+03, 9.410720e+13
8.916524e+03, 9.385311e+13
8.925441e+03, 9.302050e+13
8.934366e+03, 9.326857e+13
8.943301e+03, 9.276629e+13
8.952244e+03, 9.260789e+13
8.961196e+03, 9.369612e+13
8.970157e+03, 9.327617e+13
8.979128e+03, 9.225210e+13
8.988107e+03, 9.358357e+13
8.997095e+03, 9.396337e+13
9.006092e+03, 9.175331e+13
9.015098e+03, 8.979657e+13
9.024113e+03, 9.134808e+13
9.033137e+03, 9.240214e+13
9.042170e+03, 9.342286e+13
9.051213e+03, 9.343704e+13
9.060264e+03, 9.255232e+13
9.069324e+03, 9.322424e+13
9.078393e+03, 9.340070e+13
9.087472e+03, 8.982185e+13
9.096559e+03, 9.263467e+13
9.105656e+03, 9.277432e+13
9.114761e+03, 9.408836e+13
9.123876e+03, 9.267197e+13
9.133000e+03, 9.395299e+13
9.142133e+03, 9.340529e+13
9.151275e+03, 9.269489e+13
9.160426e+03, 9.398468e+13
9.169587e+03, 9.373097e+13
9.178757e+03, 9.257726e+13
9.187935e+03, 9.424333e+13
9.197123e+03, 9.407133e+13
9.206320e+03, 9.290132e+13
9.215527e+03, 9.275114e+13
9.224742e+03, 9.251138e+13
9.233967e+03, 9.187831e+13
9.243201e+03, 9.333725e+13
9.252444e+03, 9.177654e+13
9.261697e+03, 9.122391e+13
9.270958e+03, 9.253749e+13
9.280229e+03, 9.199082e+13
9.289509e+03, 9.176668e+13
9.298799e+03, 9.139545e+13
9.308098e+03, 9.213171e+13
9.317406e+03, 9.197727e+13
9.326723e+03, 9.138903e+13
9.336050e+03, 9.202972e+13
9.345386e+03, 9.191889e+13
9.354731e+03, 9.106790e+13
9.364086e+03, 8.984147e+13
9.373450e+03, 9.076751e+13
9.382824e+03, 9.126578e+13
9.392206e+03, 9.110265e+13
9.401599e+03, 9.048340e+13
9.411000e+03, 9.131185e+13
9.420411e+03, 8.982965e+13
9.429832e+03, 9.156859e+13
9.439262e+03, 9.075906e+13
9.448701e+03, 8.974876e+13
9.458149e+03, 9.115864e+13
9.467608e+03, 9.045523e+13
9.477075e+03, 9.157313e+13
9.486552e+03, 9.095376e+13
9.496039e+03, 9.084809e+13
9.505535e+03, 9.083268e+13
9.515040e+03, 9.039444e+13
9.524555e+03, 9.133618e+13
9.534080e+03, 9.084027e+13
9.543614e+03, 9.056682e+13
9.553158e+03, 8.890622e+13
9.562711e+03, 9.036730e+13
9.572274e+03, 8.997919e+13
9.581846e+03, 9.091888e+13
9.591428e+03, 9.094197e+13
9.601019e+03, 8.783808e+13
9.610620e+03, 9.047880e+13
9.620231e+03, 9.073816e+13
9.629851e+03, 9.032320e+13
9.639481e+03, 8.536336e+13
9.649120e+03, 8.790948e+13
9.658769e+03, 8.849132e+13
9.668428e+03, 8.886364e+13
9.678097e+03, 8.594353e+13
9.687775e+03, 8.765165e+13
9.697463e+03, 8.961807e+13
9.707160e+03, 8.583413e+13
9.716867e+03, 8.842574e+13
9.726584e+03, 8.661884e+13
9.736311e+03, 8.822505e+13
9.746047e+03, 8.598367e+13
9.755793e+03, 8.917003e+13
9.765549e+03, 8.934645e+13
9.775314e+03, 8.680687e+13
9.785090e+03, 8.513318e+13
9.794875e+03, 8.667552e+13
9.804670e+03, 8.894254e+13
9.814474e+03, 8.873180e+13
9.824289e+03, 8.852846e+13
9.834113e+03, 8.763215e+13
9.843947e+03, 8.845910e+13
9.853791e+03, 8.869626e+13
9.863645e+03, 8.804245e+13
9.873509e+03, 8.815381e+13
9.883382e+03, 8.871447e+13
9.893265e+03, 8.832391e+13
9.903159e+03, 8.362469e+13
9.913062e+03, 8.030714e+13
9.922975e+03, 8.138955e+13
9.932898e+03, 8.179480e+13
9.942831e+03, 8.519465e+13
9.952774e+03, 8.505831e+13
9.962726e+03, 8.454297e+13
9.972689e+03, 8.391636e+13
9.982662e+03, 8.419863e+13
9.992644e+03, 8.388182e+13
1.000264e+04, 8.353544e+13
1.001264e+04, 8.362472e+13
1.002265e+04, 8.493518e+13
1.003268e+04, 8.430739e+13
1.004271e+04, 8.456256e+13
1.005275e+04, 8.223434e+13
1.006280e+04, 8.091800e+13
1.007287e+04, 8.452823e+13
1.008294e+04, 8.497181e+13
1.009302e+04, 8.399266e+13
1.010311e+04, 8.530601e+13
1.011322e+04, 8.402764e+13
1.012333e+04, 8.384899e+13
1.013345e+04, 8.446000e+13
1.014359e+04, 8.320552e+13
1.015373e+04, 8.307408e+13
1.016389e+04, 8.302146e+13
1.017405e+04, 8.420500e+13
1.018422e+04, 8.266012e+13
1.019441e+04, 8.364727e+13
1.020460e+04, 8.402201e+13
1.021481e+04, 8.324464e+13
1.022502e+04, 8.233516e+13
1.023525e+04, 8.427459e+13
1.024548e+04, 8.460426e+13
1.025573e+04, 8.170187e+13
1.026598e+04, 8.020815e+13
1.027625e+04, 8.096375e+13
1.028652e+04, 8.075794e+13
1.029681e+04, 8.158743e+13
1.030711e+04, 8.199877e+13
1.031742e+04, 8.250299e+13
1.032773e+04, 8.170656e+13
1.033806e+04, 8.125649e+13
1.034840e+04, 7.603106e+13
1.035875e+04, 8.275331e+13
1.036911e+04, 8.231588e+13
1.037947e+04, 8.149991e+13
1.038985e+04, 8.251979e+13
1.040024e+04, 7.939274e+13
1.041064e+04, 8.272630e+13
1.042106e+04, 8.125275e+13
1.043148e+04, 8.035740e+13
1.044191e+04, 8.240297e+13
1.045235e+04, 8.229706e+13
1.046280e+04, 8.233148e+13
1.047326e+04, 8.007712e+13
1.048374e+04, 8.134044e+13
1.049422e+04, 8.048850e+13
1.050472e+04, 8.235188e+13
1.051522e+04, 8.044496e+13
1.052574e+04, 8.046120e+13
1.053626e+04, 8.198646e+13
1.054680e+04, 8.120363e+13
1.055734e+04, 8.042702e+13
1.056790e+04, 8.118750e+13
1.057847e+04, 8.105605e+13
1.058905e+04, 7.932677e+13
1.059964e+04, 8.155167e+13
1.061024e+04, 7.944628e+13
1.062085e+04, 8.091545e+13
1.063147e+04, 8.127943e+13
1.064210e+04, 8.081354e+13
1.065274e+04, 8.005770e+13
1.066339e+04, 7.855106e+13
1.067406e+04, 7.941427e+13
1.068473e+04, 7.913521e+13
1.069542e+04, 7.993137e+13
1.070611e+04, 7.931062e+13
1.071682e+04, 8.016714e+13
1.072753e+04, 7.842681e+13
1.073826e+04, 7.900353e+13
1.074900e+04, 7.902896e+13
1.075975e+04, 7.962484e+13
1.077051e+04, 7.976215e+13
1.078128e+04, 7.926641e+13
1.079206e+04, 7.882086e+13
1.080285e+04, 7.889098e+13
1.081366e+04, 7.739250e+13
1.082447e+04, 7.881277e+13
1.083529e+04, 7.772813e+13
1.084613e+04, 7.863444e+13
1.085698e+04, 7.852609e+13
1.086783e+04, 7.795045e+13
1.087870e+04, 7.928253e+13
1.088958e+04, 7.801876e+13
1.090047e+04, 7.931524e+13
1.091137e+04, 7.796736e+13
1.092228e+04, 7.794953e+13
1.093320e+04, 7.863261e+13
1.094414e+04, 7.928322e+13
1.095508e+04, 7.789714e+13
1.096604e+04, 7.760033e+13
1.097700e+04, 7.735600e+13
1.098798e+04, 7.770919e+13
1.099897e+04, 7.817619e+13
1.100997e+04, 7.829870e+13
1.102098e+04, 7.640405e+13
1.103200e+04, 7.767968e+13
1.104303e+04, 7.752216e+13
1.105407e+04, 7.701171e+13
1.106513e+04, 7.728205e+13
1.107619e+04, 7.772622e+13
1.108727e+04, 7.723973e+13
1.109835e+04, 7.705744e+13
1.110945e+04, 7.727882e+13
1.112056e+04, 7.583338e+13
1.113168e+04, 7.703525e+13
1.114281e+04, 7.736671e+13
1.115396e+04, 7.641390e+13
1.116511e+04, 7.644986e+13
1.117628e+04, 7.669272e+13
1.118745e+04, 7.686911e+13
1.119864e+04, 7.608700e+13
1.120984e+04, 7.625862e+13
1.122105e+04, 7.615472e+13
1.123227e+04, 7.661187e+13
1.124350e+04, 7.626461e+13
1.125474e+04, 7.168683e+13
1.126600e+04, 7.643326e+13
1.127727e+04, 7.543230e+13
1.128854e+04, 7.574075e+13
1.129983e+04, 7.474639e+13
1.131113e+04, 7.577424e+13
1.132244e+04, 7.589963e+13
1.133376e+04, 7.554560e+13
1.134510e+04, 7.534429e+13
1.135644e+04, 7.501015e+13
1.136780e+04, 7.528202e+13
1.137917e+04, 7.110938e+13
1.139055e+04, 7.328706e+13
1.140194e+04, 7.011669e+13
1.141334e+04, 7.412522e+13
1.142475e+04, 7.380344e+13
1.143618e+04, 7.492358e+13
1.144761e+04, 7.358796e+13
1.145906e+04, 7.445953e+13
1.147052e+04, 7.412512e+13
1.148199e+04, 7.382504e+13
1.149347e+04, 7.404521e+13
1.150497e+04, 7.416584e+13
1.151647e+04, 7.458904e+13
1.152799e+04, 7.457552e+13
1.153952e+04, 7.412583e+13
1.155106e+04, 7.379506e+13
1.156261e+04, 7.389646e+13
1.157417e+04, 7.393864e+13
1.158574e+04, 7.396178e+13
1.159733e+04, 7.235209e+13
1.160893e+04, 6.987750e+13
1.162054e+04, 7.366818e+13
1.163216e+04, 7.336644e+13
1.164379e+04, 7.138393e+13
1.165543e+04, 7.309572e+13
1.166709e+04, 7.328159e+13
1.167875e+04, 7.303983e+13
1.169043e+04, 6.987412e+13
1.170212e+04, 7.301433e+13
1.171383e+04, 7.283891e+13
1.172554e+04, 7.300298e+13
1.173726e+04, 7.259041e+13
1.174900e+04, 7.260620e+13
1.176075e+04, 7.256401e+13
1.177251e+04, 6.866968e+13
1.178428e+04, 7.012827e+13
1.179607e+04, 7.122511e+13
1.180786e+04, 7.219325e+13
1.181967e+04, 7.212179e+13
1.183149e+04, 6.768947e+13
1.184332e+04, 7.182981e+13
1.185517e+04, 7.157844e+13
1.186702e+04, 7.176224e+13
1.187889e+04, 7.142963e+13
1.189077e+04, 6.585859e+13
1.190266e+04, 7.151479e+13
1.191456e+04, 7.102453e+13
1.192648e+04, 7.140525e+13
1.193840e+04, 7.083169e+13
1.195034e+04, 6.982008e+13
1.196229e+04, 6.971123e+13
1.197425e+04, 6.561638e+13
1.198623e+04, 6.943840e+13
1.199821e+04, 6.962686e+13
1.201021e+04, 7.010673e+13
1.202222e+04, 7.008661e+13
1.203424e+04, 6.889746e+13
1.204628e+04, 6.984629e+13
1.205833e+04, 7.015069e+13
1.207038e+04, 6.955644e+13
1.208245e+04, 6.819572e+13
1.209454e+04, 6.941168e+13
1.210663e+04, 6.881372e+13
1.211874e+04, 6.928760e+13
1.213086e+04, 6.947521e+13
1.214299e+04, 6.951147e+13
1.215513e+04, 6.950532e+13
1.216729e+04, 6.925384e+13
1.217945e+04, 6.938496e+13
1.219163e+04, 6.895102e+13
1.220382e+04, 6.866262e+13
1.221603e+04, 6.883240e+13
1.222824e+04, 6.882235e+13
1.224047e+04, 6.852211e+13
1.225271e+04, 6.875158e+13
1.226497e+04, 6.868061e+13
1.227723e+04, 6.819232e+13
1.228951e+04, 6.849350e+13
1.230180e+04, 6.825733e+13
1.231410e+04, 6.814213e+13
1.232641e+04, 6.773966e+13
1.233874e+04, 6.791999e+13
1.235108e+04, 6.796338e+13
1.236343e+04, 6.763772e+13
1.237579e+04, 6.790688e+13
1.238817e+04, 6.731893e+13
1.240056e+04, 6.740394e+13
1.241296e+04, 6.666210e+13
1.242537e+04, 6.622362e+13
1.243780e+04, 6.541390e+13
1.245023e+04, 6.698742e+13
1.246268e+04, 6.683784e+13
1.247515e+04, 6.642561e+13
1.248762e+04, 6.680333e+13
1.250011e+04, 6.641595e+13
1.251261e+04, 6.645658e+13
1.252512e+04, 6.423448e+13
1.253765e+04, 6.632935e+13
1.255018e+04, 6.606772e+13
1.256273e+04, 6.581231e+13
1.257530e+04, 6.596719e+13
1.258787e+04, 6.610134e+13
1.260046e+04, 6.560480e+13
1.261306e+04, 6.560586e+13
1.262567e+04, 6.579056e+13
1.263830e+04, 6.505997e+13
1.265094e+04, 6.558139e+13
1.266359e+04, 6.547646e+13
1.267625e+04, 6.444191e+13
1.268893e+04, 6.465220e+13
1.270162e+04, 6.520294e+13
1.271432e+04, 6.518947e+13
1.272703e+04, 6.545174e+13
1.273976e+04, 6.441319e+13
1.275250e+04, 6.451025e+13
1.276525e+04, 6.492280e+13
1.277802e+04, 6.468147e+13
1.279080e+04, 6.484411e+13
1.280359e+04, 6.466295e+13
1.281639e+04, 6.336891e+13
1.282921e+04, 6.170459e+13
1.284204e+04, 6.422833e+13
1.285488e+04, 6.330139e+13
1.286773e+04, 6.387857e+13
1.288060e+04, 6.329408e+13
1.289348e+04, 6.349534e+13
1.290637e+04, 6.115229e+13
1.291928e+04, 6.272750e+13
1.293220e+04, 6.304528e+13
1.294513e+04, 6.290195e+13
1.295808e+04, 6.357356e+13
1.297104e+04, 6.342925e+13
1.298401e+04, 6.265492e+13
1.299699e+04, 6.295775e+13
1.300999e+04, 6.237007e+13
1.302300e+04, 6.322497e+13
1.303602e+04, 6.212395e+13
1.304906e+04, 6.290386e+13
1.306211e+04, 6.264510e+13
1.307517e+04, 6.230618e+13
1.308824e+04, 6.235964e+13
1.310133e+04, 6.236178e+13
1.311443e+04, 6.220180e+13
1.312755e+04, 5.692145e+13
1.314067e+04, 6.074910e+13
1.315382e+04, 5.806612e+13
1.316697e+04, 6.208335e+13
1.318014e+04, 6.214575e+13
1.319332e+04, 6.222952e+13
1.320651e+04, 6.135083e+13
1.321972e+04, 6.141962e+13
1.323294e+04, 6.174574e+13
1.324617e+04, 6.161994e+13
1.325941e+04, 6.119145e+13
1.327267e+04, 6.101043e+13
1.328595e+04, 6.035440e+13
1.329923e+04, 5.994634e+13
1.331253e+04, 6.073612e+13
1.332584e+04, 5.903384e+13
1.333917e+04, 6.074949e+13
1.335251e+04, 5.965525e+13
1.336586e+04, 6.017209e+13
1.337923e+04, 5.974753e+13
1.339261e+04, 5.964203e+13
1.340600e+04, 5.996744e+13
1.341941e+04, 5.939772e+13
1.343283e+04, 5.963560e+13
1.344626e+04, 5.963758e+13
1.345970e+04, 5.968754e+13
1.347316e+04, 5.942477e+13
1.348664e+04, 5.955783e+13
1.350012e+04, 5.876716e+13
1.351362e+04, 5.940332e+13
1.352714e+04, 5.924078e+13
1.354066e+04, 5.914036e+13
1.355421e+04, 5.882411e+13
1.356776e+04, 5.886604e+13
1.358133e+04, 5.883423e+13
1.359491e+04, 5.865432e+13
1.360850e+04, 5.830587e+13
1.362211e+04, 5.857129e+13
1.363573e+04, 5.751439e+13
1.364937e+04, 5.791379e+13
1.366302e+04, 5.850802e+13
1.367668e+04, 5.837982e+13
1.369036e+04, 5.809194e+13
1.370405e+04, 5.842136e+13
1.371775e+04, 5.839781e+13
1.373147e+04, 5.821438e+13
1.374520e+04, 5.831511e+13
1.375895e+04, 5.807624e+13
1.377271e+04, 5.798622e+13
1.378648e+04, 5.775101e+13
1.380027e+04, 5.814278e+13
1.381407e+04, 5.801197e+13
1.382788e+04, 5.764327e+13
1.384171e+04, 5.774137e+13
1.385555e+04, 5.682000e+13
1.386941e+04, 5.671442e+13
1.388327e+04, 5.699629e+13
1.389716e+04, 5.698723e+13
1.391106e+04, 5.289387e+13
1.392497e+04, 5.419334e+13
1.393889e+04, 5.437624e+13
1.395283e+04, 5.522005e+13
1.396678e+04, 5.627949e+13
1.398075e+04, 5.472975e+13
1.399473e+04, 5.515390e+13
1.400873e+04, 5.514357e+13
1.402273e+04, 5.578724e+13
1.403676e+04, 5.612192e+13
1.405079e+04, 5.537700e+13
1.406484e+04, 5.538361e+13
1.407891e+04, 5.575023e+13
1.409299e+04, 5.530411e+13
1.410708e+04, 5.531379e+13
1.412119e+04, 5.527271e+13
1.413531e+04, 5.469297e+13
1.414944e+04, 5.571535e+13
1.416359e+04, 5.508868e+13
1.417776e+04, 5.521873e+13
1.419194e+04, 5.453733e+13
1.420613e+04, 5.534453e+13
1.422033e+04, 5.482209e+13
1.423455e+04, 5.433016e+13
1.424879e+04, 5.477800e+13
1.426304e+04, 5.408207e+13
1.427730e+04, 5.460392e+13
1.429158e+04, 5.369074e+13
1.430587e+04, 5.454843e+13
1.432018e+04, 5.478410e+13
1.433450e+04, 5.456875e+13
1.434883e+04, 5.358550e+13
1.436318e+04, 5.384289e+13
1.437754e+04, 5.417974e+13
1.439192e+04, 5.417689e+13
1.440631e+04, 5.297431e+13
1.442072e+04, 5.404945e+13
1.443514e+04, 5.415460e+13
1.444957e+04, 5.345550e+13
1.446402e+04, 5.348575e+13
1.447849e+04, 5.416565e+13
1.449297e+04, 5.375591e+13
1.450746e+04, 5.341912e+13
1.452197e+04, 5.244990e+13
1.453649e+04, 5.390312e+13
1.455102e+04, 5.363190e+13
1.456558e+04, 5.163093e+13
1.458014e+04, 5.365993e+13
1.459472e+04, 5.354477e+13
1.460932e+04, 4.925773e+13
1.462393e+04, 5.009076e+13
1.463855e+04, 5.178209e+13
1.465319e+04, 5.154844e+13
1.466784e+04, 5.141542e+13
1.468251e+04, 5.157098e+13
1.469719e+04, 5.084830e+13
1.471189e+04, 5.123825e+13
1.472660e+04, 5.250410e+13
1.474133e+04, 5.187058e+13
1.475607e+04, 5.136005e+13
1.477082e+04, 5.117799e+13
1.478560e+04, 5.146671e+13
1.480038e+04, 5.057725e+13
1.481518e+04, 5.196695e+13
1.483000e+04, 5.146058e+13
1.484483e+04, 5.220551e+13
1.485967e+04, 5.166038e+13
1.487453e+04, 4.918158e+13
1.488941e+04, 4.859225e+13
1.490429e+04, 5.064405e+13
1.491920e+04, 5.222391e+13
1.493412e+04, 5.168214e+13
1.494905e+04, 5.191539e+13
1.496400e+04, 5.171394e+13
1.497897e+04, 5.188771e+13
1.499394e+04, 5.173278e+13
1.500894e+04, 5.020763e+13
1.502395e+04, 4.599873e+13
1.503897e+04, 4.720470e+13
1.505401e+04, 4.734529e+13
1.506906e+04, 5.085533e+13
1.508413e+04, 5.069325e+13
1.509922e+04, 5.154384e+13
1.511432e+04, 5.117317e+13
1.512943e+04, 4.997591e+13
1.514456e+04, 4.990910e+13
1.515970e+04, 5.029759e+13
1.517486e+04, 4.997770e+13
1.519004e+04, 5.081228e+13
1.520523e+04, 5.070972e+13
1.522043e+04, 5.099565e+13
1.523566e+04, 5.079636e+13
1.525089e+04, 5.091970e+13
1.526614e+04, 4.943151e+13
1.528141e+04, 4.895714e+13
1.529669e+04, 4.989414e+13
1.531199e+04, 5.116386e+13
1.532730e+04, 4.979609e+13
1.534263e+04, 4.963855e+13
1.535797e+04, 5.106533e+13
1.537333e+04, 4.829139e+13
1.538870e+04, 4.813541e+13
1.540409e+04, 4.777362e+13
1.541949e+04, 4.841726e+13
1.543491e+04, 4.788691e+13
1.545035e+04, 5.078499e+13
1.546580e+04, 4.972562e+13
1.548126e+04, 4.993267e+13
1.549674e+04, 4.967496e+13
1.551224e+04, 4.847458e+13
1.552775e+04, 5.062063e+13
1.554328e+04, 4.705084e+13
1.555882e+04, 4.845905e+13
1.557438e+04, 4.817527e+13
1.558996e+04, 4.929781e+13
1.560555e+04, 4.901336e+13
1.562115e+04, 4.891804e+13
1.563677e+04, 4.817108e+13
1.565241e+04, 4.818015e+13
1.566806e+04, 4.961327e+13
1.568373e+04, 4.915301e+13
1.569941e+04, 4.868873e+13
1.571511e+04, 4.840229e+13
1.573083e+04, 4.733635e+13
1.574656e+04, 4.585905e+13
1.576231e+04, 4.559736e+13
1.577807e+04, 4.505176e+13
1.579385e+04, 4.931608e+13
1.580964e+04, 4.945908e+13
1.582545e+04, 4.744709e+13
1.584128e+04, 4.796374e+13
1.585712e+04, 4.938258e+13
1.587297e+04, 4.850133e+13
1.588885e+04, 4.529515e+13
1.590474e+04, 4.560584e+13
1.592064e+04, 4.707644e+13
1.593656e+04, 4.876919e+13
1.595250e+04, 4.913128e+13
1.596845e+04, 4.804436e+13
1.598442e+04, 4.824908e+13
1.600040e+04, 4.916096e+13
1.601640e+04, 4.795345e+13
1.603242e+04, 4.879234e+13
1.604845e+04, 4.665148e+13
1.606450e+04, 4.583555e+13
1.608057e+04, 4.644573e+13
1.609665e+04, 4.861461e+13
1.611274e+04, 4.807425e+13
1.612886e+04, 4.764098e+13
1.614498e+04, 4.755786e+13
1.616113e+04, 4.390677e+13
1.617729e+04, 4.790280e+13
1.619347e+04, 4.467332e+13
1.620966e+04, 4.413368e+13
1.622587e+04, 4.556617e+13
1.624210e+04, 4.588005e+13
1.625834e+04, 4.492817e+13
1.627460e+04, 4.739556e+13
1.629087e+04, 4.812135e+13
1.630716e+04, 4.730522e+13
1.632347e+04, 4.579802e+13
1.633979e+04, 4.717633e+13
1.635613e+04, 4.534306e+13
1.637249e+04, 4.578038e+13
1.638886e+04, 4.604506e+13
1.640525e+04, 4.556094e+13
1.642166e+04, 4.705458e+13
1.643808e+04, 4.648852e+13
1.645452e+04, 4.276568e+13
1.647097e+04, 4.588135e+13
1.648744e+04, 4.565879e+13
1.650393e+04, 4.659401e+13
1.652043e+04, 4.529916e+13
1.653695e+04, 4.396717e+13
1.655349e+04, 4.615493e+13
1.657004e+04, 4.600106e+13
1.658661e+04, 4.520581e+13
1.660320e+04, 4.568797e+13
1.661980e+04, 4.517899e+13
1.663642e+04, 4.527352e+13
1.665306e+04, 4.329002e+13
1.666971e+04, 4.462119e+13
1.668638e+04, 4.463696e+13
1.670307e+04, 4.448887e+13
1.671977e+04, 4.025348e+13
1.673649e+04, 4.360078e+13
1.675323e+04, 3.994408e+13
1.676998e+04, 4.282487e+13
1.678675e+04, 4.472361e+13
1.680354e+04, 4.468341e+13
1.682034e+04, 4.454550e+13
1.683716e+04, 4.417410e+13
1.685400e+04, 4.400243e+13
1.687085e+04, 4.227930e+13
1.688772e+04, 4.226824e+13
1.690461e+04, 4.070272e+13
1.692152e+04, 4.314988e+13
1.693844e+04, 4.319335e+13
1.695538e+04, 4.302973e+13
1.697233e+04, 4.289680e+13
1.698930e+04, 4.326243e+13
1.700629e+04, 4.210095e+13
1.702330e+04, 4.258520e+13
1.704032e+04, 4.288217e+13
1.705736e+04, 4.163500e+13
1.707442e+04, 4.088389e+13
1.709149e+04, 4.170771e+13
1.710859e+04, 3.558702e+13
1.712569e+04, 4.093994e+13
1.714282e+04, 4.189688e+13
1.715996e+04, 4.156096e+13
1.717712e+04, 4.074833e+13
1.719430e+04, 4.088378e+13
1.721149e+04, 4.052484e+13
1.722871e+04, 3.997526e+13
1.724593e+04, 3.957210e+13
1.726318e+04, 4.076964e+13
1.728044e+04, 4.056412e+13
1.729772e+04, 4.055247e+13
1.731502e+04, 3.865162e+13
1.733234e+04, 3.886754e+13
1.734967e+04, 3.845708e+13
1.736702e+04, 4.007646e+13
1.738439e+04, 3.922941e+13
1.740177e+04, 3.957516e+13
1.741917e+04, 3.846744e+13
1.743659e+04, 3.867755e+13
1.745403e+04, 3.937815e+13
1.747148e+04, 3.903773e+13
1.748895e+04, 3.919753e+13
1.750644e+04, 3.835121e+13
1.752395e+04, 3.839515e+13
1.754147e+04, 3.723105e+13
1.755901e+04, 3.753840e+13
1.757657e+04, 3.828948e+13
1.759415e+04, 3.722311e+13
1.761174e+04, 3.686284e+13
1.762936e+04, 3.704309e+13
1.764699e+04, 3.789602e+13
1.766463e+04, 3.730696e+13
1.768230e+04, 3.679105e+13
1.769998e+04, 3.733026e+13
1.771768e+04, 3.643765e+13
1.773540e+04, 3.697155e+13
1.775313e+04, 3.672215e+13
1.777089e+04, 3.532998e+13
1.778866e+04, 3.628684e+13
1.780644e+04, 3.660820e+13
1.782425e+04, 3.473275e+13
1.784208e+04, 3.567172e+13
1.785992e+04, 3.474353e+13
1.787778e+04, 3.572277e+13
1.789566e+04, 3.611641e+13
1.791355e+04, 3.544333e+13
1.793146e+04, 3.542389e+13
1.794940e+04, 3.516916e+13
1.796735e+04, 3.523858e+13
1.798531e+04, 3.513080e+13
1.800330e+04, 3.412473e+13
1.802130e+04, 3.366380e+13
1.803932e+04, 3.321532e+13
1.805736e+04, 3.406845e+13
1.807542e+04, 3.441861e+13
1.809349e+04, 3.441432e+13
1.811159e+04, 3.372892e+13
1.812970e+04, 3.385512e+13
1.814783e+04, 3.384537e+13
1.816598e+04, 3.420534e+13
1.818414e+04, 3.387941e+13
1.820233e+04, 3.310546e+13
1.822053e+04, 3.291189e+13
1.823875e+04, 3.422859e+13
1.825699e+04, 3.296707e+13
1.827525e+04, 3.214772e+13
1.829352e+04, 3.233725e+13
1.831181e+04, 3.313311e+13
1.833013e+04, 3.305433e+13
1.834846e+04, 3.277441e+13
1.836681e+04, 3.230565e+13
1.838517e+04, 3.256183e+13
1.840356e+04, 3.165618e+13
1.842196e+04, 3.137017e+13
1.844038e+04, 3.160956e+13
1.845882e+04, 3.123905e+13
1.847728e+04, 2.891311e+13
1.849576e+04, 3.150866e+13
1.851425e+04, 3.134483e+13
1.853277e+04, 3.077012e+13
1.855130e+04, 3.075420e+13
1.856985e+04, 3.038725e+13
1.858842e+04, 3.042054e+13
1.860701e+04, 3.089461e+13
1.862562e+04, 3.090754e+13
1.864424e+04, 3.081717e+13
1.866289e+04, 3.053544e+13
1.868155e+04, 3.094183e+13
1.870023e+04, 3.101045e+13
1.871893e+04, 3.025041e+13
1.873765e+04, 2.972857e+13
1.875639e+04, 3.061020e+13
1.877515e+04, 2.978650e+13
1.879392e+04, 3.018431e+13
1.881272e+04, 3.047143e+13
1.883153e+04, 3.066131e+13
1.885036e+04, 2.901451e+13
1.886921e+04, 2.936343e+13
1.888808e+04, 2.984898e+13
1.890697e+04, 2.967556e+13
1.892587e+04, 2.871989e+13
1.894480e+04, 2.964827e+13
1.896374e+04, 2.971438e+13
1.898271e+04, 2.871550e+13
1.900169e+04, 2.957303e+13
1.902069e+04, 2.943518e+13
1.903971e+04, 2.899098e+13
1.905875e+04, 2.792876e+13
1.907781e+04, 2.896829e+13
1.909689e+04, 2.866374e+13
1.911599e+04, 2.822974e+13
1.913510e+04, 2.924810e+13
1.915424e+04, 2.870978e+13
1.917339e+04, 2.871323e+13
1.919257e+04, 2.878778e+13
1.921176e+04, 2.867894e+13
1.923097e+04, 2.859696e+13
1.925020e+04, 2.849361e+13
1.926945e+04, 2.814545e+13
1.928872e+04, 2.780751e+13
1.930801e+04, 2.302573e+13
1.932732e+04, 2.592552e+13
1.934664e+04, 2.715336e+13
1.936599e+04, 2.790776e+13
1.938536e+04, 2.766800e+13
1.940474e+04, 2.723839e+13
1.942415e+04, 2.719457e+13
1.944357e+04, 2.503910e+13
1.946301e+04, 2.082530e+13
1.948248e+04, 2.599542e+13
1.950196e+04, 2.390267e+13
1.952146e+04, 2.459679e+13
1.954098e+04, 2.682708e+13
1.956052e+04, 2.689271e+13
1.958009e+04, 2.729623e+13
1.959967e+04, 2.688628e+13
1.961927e+04, 2.586200e+13
1.963888e+04, 2.588618e+13
1.965852e+04, 2.690748e+13
1.967818e+04, 2.678567e+13
1.969786e+04, 2.663569e+13
1.971756e+04, 2.623503e+13
1.973728e+04, 2.556086e+13
1.975701e+04, 2.455591e+13
1.977677e+04, 1.905128e+13
1.979655e+04, 2.262244e+13
1.981634e+04, 2.388296e+13
1.983616e+04, 2.542654e+13
1.985600e+04, 2.225227e+13
1.987585e+04, 2.225146e+13
1.989573e+04, 2.495443e+13
1.991562e+04, 2.394203e+13
1.993554e+04, 2.354419e+13
1.995547e+04, 2.482069e+13
1.997543e+04, 2.421093e+13
1.999541e+04, 2.518510e+13
2.001540e+04, 2.506046e+13
2.003542e+04, 2.498380e+13
2.005545e+04, 2.511501e+13
2.007551e+04, 2.520211e+13
2.009558e+04, 2.468469e+13
2.011568e+04, 2.469135e+13
2.013579e+04, 2.460878e+13
2.015593e+04, 2.465218e+13
2.017609e+04, 2.442572e+13
2.019626e+04, 2.400880e+13
2.021646e+04, 2.441585e+13
2.023667e+04, 2.434839e+13
2.025691e+04, 2.428074e+13
2.027717e+04, 2.383394e+13
2.029744e+04, 2.364614e+13
2.031774e+04, 2.408804e+13
2.033806e+04, 2.400972e+13
2.035840e+04, 2.378724e+13
2.037876e+04, 2.392110e+13
2.039914e+04, 2.378860e+13
2.041953e+04, 2.382251e+13
2.043995e+04, 2.358754e+13
2.046039e+04, 2.354085e+13
2.048085e+04, 2.323302e+13
2.050134e+04, 2.316459e+13
2.052184e+04, 2.322962e+13
2.054236e+04, 2.289382e+13
2.056290e+04, 2.293060e+13
2.058346e+04, 2.308148e+13
2.060405e+04, 2.302522e+13
2.062465e+04, 2.294763e+13
2.064528e+04, 2.244985e+13
2.066592e+04, 2.284462e+13
2.068659e+04, 2.267749e+13
2.070727e+04, 2.275846e+13
2.072798e+04, 2.245909e+13
2.074871e+04, 2.254356e+13
2.076946e+04, 2.255131e+13
2.079023e+04, 2.251930e+13
2.081102e+04, 2.224666e+13
2.083183e+04, 2.225335e+13
2.085266e+04, 2.191076e+13
2.087351e+04, 2.198996e+13
2.089439e+04, 2.196316e+13
2.091528e+04, 2.212473e+13
2.093620e+04, 2.193995e+13
2.095713e+04, 2.175867e+13
2.097809e+04, 2.169537e+13
2.099907e+04, 2.170974e+13
2.102007e+04, 2.161972e+13
2.104109e+04, 2.176105e+13
2.106213e+04, 2.125221e+13
2.108319e+04, 2.135836e+13
2.110427e+04, 2.099903e+13
2.112538e+04, 2.129841e+13
2.114650e+04, 2.143267e+13
2.116765e+04, 2.043589e+13
2.118882e+04, 2.110825e+13
2.121001e+04, 2.091178e+13
2.123122e+04, 2.111102e+13
2.125245e+04, 2.096078e+13
2.127370e+04, 2.095902e+13
2.129497e+04, 2.090765e+13
2.131627e+04, 2.090503e+13
2.133758e+04, 2.085090e+13
2.135892e+04, 2.065199e+13
2.138028e+04, 2.057298e+13
2.140166e+04, 2.051916e+13
2.142306e+04, 2.057503e+13
2.144449e+04, 2.070641e+13
2.146593e+04, 2.043912e+13
2.148740e+04, 2.040360e+13
2.150888e+04, 2.037817e+13
2.153039e+04, 2.015173e+13
2.155192e+04, 2.023161e+13
2.157347e+04, 2.020044e+13
2.159505e+04, 2.007568e+13
2.161664e+04, 2.021106e+13
2.163826e+04, 1.992122e+13
2.165990e+04, 1.999758e+13
2.168156e+04, 1.998426e+13
2.170324e+04, 1.993327e+13
2.172494e+04, 1.987772e+13
2.174667e+04, 1.980923e+13
2.176841e+04, 1.969105e+13
2.179018e+04, 1.920984e+13
2.181197e+04, 1.945931e+13
2.183378e+04, 1.943297e+13
2.185562e+04, 1.949152e+13
2.187747e+04, 1.937724e+13
2.189935e+04, 1.902210e+13
2.192125e+04, 1.937947e+13
2.194317e+04, 1.932491e+13
2.196512e+04, 1.922231e+13
2.198708e+04, 1.907788e+13
2.200907e+04, 1.892828e+13
2.203108e+04, 1.896455e+13
2.205311e+04, 1.782514e+13
2.207516e+04, 1.838495e+13
2.209724e+04, 1.796493e+13
2.211933e+04, 1.879279e+13
2.214145e+04, 1.880051e+13
2.216359e+04, 1.877815e+13
2.218576e+04, 1.872506e+13
2.220794e+04, 1.842934e+13
2.223015e+04, 1.842081e+13
2.225238e+04, 1.844796e+13
2.227463e+04, 1.800233e+13
2.229691e+04, 1.836052e+13
2.231921e+04, 1.824612e+13
2.234152e+04, 1.821760e+13
2.236387e+04, 1.827733e+13
2.238623e+04, 1.801118e+13
2.240862e+04, 1.799384e+13
2.243102e+04, 1.810692e+13
2.245346e+04, 1.799164e+13
2.247591e+04, 1.790999e+13
2.249839e+04, 1.795027e+13
2.252088e+04, 1.791919e+13
2.254340e+04, 1.781783e+13
2.256595e+04, 1.781586e+13
2.258851e+04, 1.771078e+13
2.261110e+04, 1.685436e+13
2.263371e+04, 1.628873e+13
2.265635e+04, 1.627182e+13
2.267900e+04, 1.740036e+13
2.270168e+04, 1.732291e+13
2.272438e+04, 1.736404e+13
2.274711e+04, 1.736705e+13
2.276986e+04, 1.730814e+13
2.279263e+04, 1.723013e+13
2.281542e+04, 1.699166e+13
2.283823e+04, 1.687426e+13
2.286107e+04, 1.705178e+13
2.288393e+04, 1.697305e+13
2.290682e+04, 1.698811e+13
2.292972e+04, 1.594474e+13
2.295265e+04, 1.532518e+13
2.297561e+04, 1.568565e+13
2.299858e+04, 1.607415e+13
2.302158e+04, 1.617924e+13
2.304460e+04, 1.618860e+13
2.306765e+04, 1.573997e+13
2.309071e+04, 1.612445e+13
2.311380e+04, 1.605176e+13
2.313692e+04, 1.611915e+13
2.316006e+04, 1.595995e+13
2.318322e+04, 1.596852e+13
2.320640e+04, 1.603218e+13
2.322961e+04, 1.417506e+13
2.325283e+04, 1.473372e+13
2.327609e+04, 1.513028e+13
2.329936e+04, 1.514769e+13
2.332266e+04, 1.532116e+13
2.334599e+04, 1.482720e+13
2.336933e+04, 1.504571e+13
2.339270e+04, 1.459645e+13
2.341609e+04, 1.527703e+13
2.343951e+04, 1.520211e+13
2.346295e+04, 1.522322e+13
2.348641e+04, 1.513173e+13
2.350990e+04, 1.519617e+13
2.353341e+04, 1.313892e+13
2.355694e+04, 1.429430e+13
2.358050e+04, 1.435561e+13
2.360408e+04, 1.445833e+13
2.362768e+04, 1.451729e+13
2.365131e+04, 1.466978e+13
2.367496e+04, 1.456129e+13
2.369864e+04, 1.447401e+13
2.372234e+04, 1.449756e+13
2.374606e+04, 1.446304e+13
2.376980e+04, 1.461145e+13
2.379357e+04, 1.444679e+13
2.381737e+04, 1.423103e+13
2.384119e+04, 1.268248e+13
2.386503e+04, 1.344876e+13
2.388889e+04, 1.371364e+13
2.391278e+04, 1.376063e+13
2.393669e+04, 1.384656e+13
2.396063e+04, 1.371082e+13
2.398459e+04, 1.380932e+13
2.400858e+04, 1.376768e+13
2.403258e+04, 1.363697e+13
2.405662e+04, 1.375707e+13
2.408067e+04, 1.347282e+13
2.410475e+04, 1.351908e+13
2.412886e+04, 1.342840e+13
2.415299e+04, 1.241523e+13
2.417714e+04, 1.294227e+13
2.420132e+04, 1.301620e+13
2.422552e+04, 1.286503e+13
2.424974e+04, 1.314905e+13
2.427399e+04, 1.286353e+13
2.429827e+04, 1.306884e+13
2.432257e+04, 1.296446e+13
2.434689e+04, 1.277710e+13
2.437124e+04, 1.263613e+13
2.439561e+04, 1.304738e+13
2.442000e+04, 1.266721e+13
2.444442e+04, 1.263979e+13
2.446887e+04, 1.190868e+13
2.449334e+04, 1.222458e+13
2.451783e+04, 1.225505e+13
2.454235e+04, 1.192020e+13
2.456689e+04, 1.227859e+13
2.459146e+04, 1.237512e+13
2.461605e+04, 1.173668e+13
2.464066e+04, 1.224643e+13
2.466530e+04, 1.206072e+13
2.468997e+04, 1.203742e+13
2.471466e+04, 1.209559e+13
2.473937e+04, 1.168197e+13
2.476411e+04, 1.192123e+13
2.478888e+04, 1.154613e+13
2.481367e+04, 1.111830e+13
2.483848e+04, 1.158201e+13
2.486332e+04, 1.014795e+13
2.488818e+04, 1.021646e+13
2.491307e+04, 1.023172e+13
2.493798e+04, 1.038908e+13
2.496292e+04, 1.049171e+13
2.498788e+04, 1.025161e+13
2.501287e+04, 1.045512e+13
2.503788e+04, 1.020384e+13
2.506292e+04, 1.016175e+13
2.508799e+04, 1.051612e+13
2.511307e+04, 1.024318e+13
2.513819e+04, 1.016761e+13
2.516332e+04, 1.021351e+13
2.518849e+04, 1.023828e+13
2.521368e+04, 1.034732e+13
2.523889e+04, 9.796856e+12
2.526413e+04, 9.739164e+12
2.528939e+04, 9.836467e+12
2.531468e+04, 1.027228e+13
2.534000e+04, 9.999661e+12
2.536534e+04, 9.846279e+12
2.539070e+04, 1.011387e+13
2.541609e+04, 1.001679e+13
2.544151e+04, 1.004267e+13
2.546695e+04, 9.983617e+12
2.549242e+04, 1.006150e+13
2.551791e+04, 9.859500e+12
2.554343e+04, 1.006631e+13
2.556897e+04, 1.007880e+13
2.559454e+04, 1.013066e+13
2.562014e+04, 9.788312e+12
2.564576e+04, 9.868502e+12
2.567140e+04, 1.007048e+13
2.569707e+04, 9.838530e+12
2.572277e+04, 1.028388e+13
2.574849e+04, 9.827775e+12
2.577424e+04, 9.692044e+12
2.580002e+04, 1.006890e+13
2.582582e+04, 9.829134e+12
2.585164e+04, 1.015855e+13
2.587749e+04, 1.008381e+13
2.590337e+04, 1.000169e+13
2.592927e+04, 1.020843e+13
2.595520e+04, 9.835602e+12
2.598116e+04, 9.944239e+12
2.600714e+04, 1.016478e+13
2.603315e+04, 1.000803e+13
2.605918e+04, 9.923067e+12
2.608524e+04, 9.610994e+12
2.611132e+04, 1.026251e+13
2.613744e+04, 1.006465e+13
2.616357e+04, 1.006018e+13
2.618974e+04, 9.370254e+12
2.621593e+04, 9.147514e+12
2.624214e+04, 9.259703e+12
2.626838e+04, 9.500322e+12
2.629465e+04, 9.444845e+12
2.632095e+04, 9.580655e+12
2.634727e+04, 9.326502e+12
2.637362e+04, 9.366806e+12
2.639999e+04, 9.063631e+12
2.642639e+04, 9.266562e+12
2.645282e+04, 9.362663e+12
2.647927e+04, 9.410104e+12
2.650575e+04, 9.157975e+12
2.653225e+04, 8.965068e+12
2.655879e+04, 8.708447e+12
2.658534e+04, 9.162634e+12
2.661193e+04, 8.910849e+12
2.663854e+04, 9.070014e+12
2.666518e+04, 9.122379e+12
2.669185e+04, 9.178943e+12
2.671854e+04, 9.090937e+12
2.674526e+04, 9.108220e+12
2.677200e+04, 8.822297e+12
2.679877e+04, 9.057615e+12
2.682557e+04, 8.877902e+12
2.685240e+04, 8.947585e+12
2.687925e+04, 9.116597e+12
2.690613e+04, 8.995392e+12
2.693303e+04, 8.793592e+12
2.695997e+04, 8.551212e+12
2.698693e+04, 9.002636e+12
2.701391e+04, 8.780935e+12
2.704093e+04, 8.550954e+12
2.706797e+04, 8.713364e+12
2.709504e+04, 8.911396e+12
2.712213e+04, 8.566298e+12
2.714925e+04, 8.613766e+12
2.717640e+04, 8.487259e+12
2.720358e+04, 8.772022e+12
2.723078e+04, 8.617504e+12
2.725801e+04, 8.656078e+12
2.728527e+04, 8.310863e+12
2.731256e+04, 8.641859e+12
2.733987e+04, 8.655110e+12
2.736721e+04, 8.249155e+12
2.739458e+04, 8.156388e+12
2.742197e+04, 8.574887e+12
2.744939e+04, 8.458898e+12
2.747684e+04, 8.386619e+12
2.750432e+04, 8.211348e+12
2.753182e+04, 8.319047e+12
2.755936e+04, 8.075579e+12
2.758692e+04, 8.349352e+12
2.761450e+04, 8.313664e+12
2.764212e+04, 8.259924e+12
2.766976e+04, 7.728704e+12
2.769743e+04, 7.970334e+12
2.772513e+04, 8.069385e+12
2.775285e+04, 8.181457e+12
2.778060e+04, 8.040751e+12
2.780839e+04, 7.994161e+12
2.783619e+04, 7.989006e+12
2.786403e+04, 7.621429e+12
2.789189e+04, 7.651594e+12
2.791979e+04, 7.446982e+12
2.794771e+04, 7.799851e+12
2.797565e+04, 7.691428e+12
2.800363e+04, 7.687703e+12
2.803163e+04, 7.147386e+12
2.805966e+04, 7.340682e+12
2.808772e+04, 7.560070e+12
2.811581e+04, 7.522127e+12
2.814393e+04, 7.555074e+12
2.817207e+04, 7.440955e+12
2.820024e+04, 7.131159e+12
2.822844e+04, 7.475541e+12
2.825667e+04, 7.407658e+12
2.828493e+04, 7.476626e+12
2.831321e+04, 7.476295e+12
2.834153e+04, 7.383890e+12
2.836987e+04, 7.093350e+12
2.839824e+04, 7.449086e+12
2.842664e+04, 7.340538e+12
2.845506e+04, 7.424035e+12
2.848352e+04, 7.281868e+12
2.851200e+04, 7.162223e+12
2.854051e+04, 6.925322e+12
2.856905e+04, 7.099093e+12
2.859762e+04, 7.510220e+12
2.862622e+04, 7.269359e+12
2.865485e+04, 7.165287e+12
2.868350e+04, 7.025964e+12
2.871219e+04, 6.922210e+12
2.874090e+04, 6.884683e+12
2.876964e+04, 7.308387e+12
2.879841e+04, 7.246407e+12
2.882721e+04, 7.203676e+12
2.885603e+04, 6.859266e+12
2.888489e+04, 6.836617e+12
2.891377e+04, 6.728170e+12
2.894269e+04, 7.150844e+12
2.897163e+04, 7.159478e+12
2.900060e+04, 6.623198e+12
2.902960e+04, 6.856851e+12
2.905863e+04, 6.943430e+12
2.908769e+04, 6.362307e+12
2.911678e+04, 6.828313e+12
2.914590e+04, 6.967983e+12
2.917504e+04, 6.834265e+12
2.920422e+04, 6.712741e+12
2.923342e+04, 6.416877e+12
2.926265e+04, 6.623346e+12
2.929192e+04, 6.195498e+12
2.932121e+04, 6.778310e+12
2.935053e+04, 6.476830e+12
2.937988e+04, 6.498887e+12
2.940926e+04, 6.370120e+12
2.943867e+04, 6.235890e+12
2.946811e+04, 6.271623e+12
2.949758e+04, 6.182747e+12
2.952707e+04, 6.536785e+12
2.955660e+04, 6.257654e+12
2.958616e+04, 6.489728e+12
2.961574e+04, 6.095237e+12
2.964536e+04, 6.314999e+12
2.967501e+04, 6.118933e+12
2.970468e+04, 6.038022e+12
2.973439e+04, 6.346079e+12
2.976412e+04, 6.398175e+12
2.979388e+04, 6.269221e+12
2.982368e+04, 6.122018e+12
2.985350e+04, 6.246813e+12
2.988335e+04, 5.790406e+12
2.991324e+04, 6.096327e+12
2.994315e+04, 6.291373e+12
2.997309e+04, 6.215552e+12
3.000307e+04, 5.966596e+12
3.003307e+04, 5.990831e+12
3.006310e+04, 5.954750e+12
3.009317e+04, 5.471398e+12
3.012326e+04, 6.042151e+12
3.015338e+04, 6.236485e+12
3.018354e+04, 6.099003e+12
3.021372e+04, 5.881920e+12
3.024393e+04, 5.918928e+12
3.027418e+04, 5.779748e+12
3.030445e+04, 5.789500e+12
3.033476e+04, 6.030874e+12
3.036509e+04, 5.938737e+12
3.039546e+04, 5.942547e+12
3.042585e+04, 5.542193e+12
3.045628e+04, 5.726121e+12
3.048673e+04, 5.415235e+12
3.051722e+04, 5.627210e+12
3.054774e+04, 5.948088e+12
3.057829e+04, 5.788278e+12
3.060886e+04, 5.815158e+12
3.063947e+04, 5.714643e+12
3.067011e+04, 5.675911e+12
3.070078e+04, 5.560704e+12
3.073148e+04, 5.485512e+12
3.076221e+04, 5.686774e+12
3.079298e+04, 5.661170e+12
3.082377e+04, 5.625853e+12
3.085459e+04, 5.284519e+12
3.088545e+04, 5.419680e+12
3.091633e+04, 5.256449e+12
3.094725e+04, 5.422926e+12
3.097820e+04, 5.438102e+12
3.100918e+04, 5.657964e+12
3.104018e+04, 5.605473e+12
3.107122e+04, 5.321512e+12
3.110230e+04, 5.418450e+12
3.113340e+04, 5.342448e+12
3.116453e+04, 5.200002e+12
3.119570e+04, 5.292547e+12
3.122689e+04, 5.425239e+12
3.125812e+04, 5.433966e+12
3.128938e+04, 5.213153e+12
3.132067e+04, 4.957169e+12
3.135199e+04, 5.042546e+12
3.138334e+04, 5.309992e+12
3.141472e+04, 5.309758e+12
3.144614e+04, 5.188825e+12
3.147758e+04, 5.198410e+12
3.150906e+04, 5.258303e+12
3.154057e+04, 5.153573e+12
3.157211e+04, 4.953487e+12
3.160368e+04, 5.235371e+12
3.163529e+04, 5.207775e+12
3.166692e+04, 5.129435e+12
3.169859e+04, 5.180934e+12
3.173029e+04, 5.102884e+12
3.176202e+04, 5.092391e+12
3.179378e+04, 4.744383e+12
3.182557e+04, 4.876088e+12
3.185740e+04, 5.081575e+12
3.188926e+04, 5.022506e+12
3.192115e+04, 4.964634e+12
3.195307e+04, 5.013875e+12
3.198502e+04, 4.851110e+12
3.201700e+04, 4.834711e+12
3.204902e+04, 4.973445e+12
3.208107e+04, 5.049221e+12
3.211315e+04, 5.019590e+12
3.214526e+04, 4.967842e+12
3.217741e+04, 4.875500e+12
3.220959e+04, 4.878933e+12
3.224180e+04, 4.899187e+12
3.227404e+04, 4.713793e+12
3.230631e+04, 4.812046e+12
3.233862e+04, 4.701007e+12
3.237096e+04, 4.717317e+12
3.240333e+04, 4.731702e+12
3.243573e+04, 4.680625e+12
3.246817e+04, 4.730299e+12
3.250064e+04, 4.769297e+12
3.253314e+04, 4.758381e+12
3.256567e+04, 4.821756e+12
3.259824e+04, 4.803219e+12
3.263083e+04, 4.719624e+12
3.266346e+04, 4.697415e+12
3.269613e+04, 4.641650e+12
3.272882e+04, 4.746088e+12
3.276155e+04, 4.583866e+12
3.279431e+04, 4.641637e+12
3.282711e+04, 4.450520e+12
3.285994e+04, 4.359122e+12
3.289280e+04, 4.577676e+12
3.292569e+04, 4.438285e+12
3.295861e+04, 4.578949e+12
3.299157e+04, 4.579415e+12
3.302456e+04, 4.623014e+12
3.305759e+04, 4.572894e+12
3.309065e+04, 4.474999e+12
3.312374e+04, 4.547747e+12
3.315686e+04, 4.437588e+12
3.319002e+04, 4.358954e+12
3.322321e+04, 4.502777e+12
3.325643e+04, 4.446088e+12
3.328969e+04, 4.542618e+12
3.332298e+04, 4.465455e+12
3.335630e+04, 4.329029e+12
3.338966e+04, 4.043881e+12
3.342305e+04, 4.235132e+12
3.345647e+04, 4.326162e+12
3.348993e+04, 4.381507e+12
3.352342e+04, 4.398193e+12
3.355694e+04, 4.261282e+12
3.359050e+04, 4.354440e+12
3.362409e+04, 4.355206e+12
3.365771e+04, 4.252761e+12
3.369137e+04, 4.325474e+12
3.372506e+04, 4.313345e+12
3.375878e+04, 4.253644e+12
3.379254e+04, 4.274365e+12
3.382634e+04, 4.257828e+12
3.386016e+04, 4.254222e+12
3.389402e+04, 4.272277e+12
3.392792e+04, 4.054091e+12
3.396184e+04, 3.791736e+12
3.399581e+04, 4.103060e+12
3.402980e+04, 4.184302e+12
3.406383e+04, 4.108871e+12
3.409790e+04, 4.085489e+12
3.413199e+04, 4.055077e+12
3.416613e+04, 4.079322e+12
3.420029e+04, 4.117571e+12
3.423449e+04, 4.129658e+12
3.426873e+04, 4.123555e+12
3.430300e+04, 4.098694e+12
3.433730e+04, 4.095220e+12
3.437164e+04, 4.077322e+12
3.440601e+04, 4.036940e+12
3.444041e+04, 4.009203e+12
3.447485e+04, 3.962122e+12
3.450933e+04, 3.877720e+12
3.454384e+04, 3.849430e+12
3.457838e+04, 3.717908e+12
3.461296e+04, 3.888461e+12
3.464757e+04, 3.882168e+12
3.468222e+04, 3.985957e+12
3.471690e+04, 3.965020e+12
3.475162e+04, 3.937299e+12
3.478637e+04, 3.942427e+12
3.482116e+04, 3.892602e+12
3.485598e+04, 3.896165e+12
3.489083e+04, 3.860039e+12
3.492573e+04, 3.843986e+12
3.496065e+04, 3.887293e+12
3.499561e+04, 3.803003e+12
3.503061e+04, 3.855441e+12
3.506564e+04, 3.759358e+12
3.510070e+04, 3.676411e+12
3.513580e+04, 3.659783e+12
3.517094e+04, 3.739953e+12
3.520611e+04, 3.483463e+12
3.524132e+04, 3.648362e+12
3.527656e+04, 3.748206e+12
3.531184e+04, 3.767879e+12
3.534715e+04, 3.742407e+12
3.538249e+04, 3.661711e+12
3.541788e+04, 3.700467e+12
3.545329e+04, 3.663197e+12
3.548875e+04, 3.639469e+12
3.552424e+04, 3.646177e+12
3.555976e+04, 3.648995e+12
3.559532e+04, 3.636660e+12
3.563092e+04, 3.644928e+12
3.566655e+04, 3.622433e+12
3.570221e+04, 3.394257e+12
3.573792e+04, 3.452719e+12
3.577365e+04, 3.493294e+12
3.580943e+04, 3.576700e+12
3.584524e+04, 3.559542e+12
3.588108e+04, 3.335878e+12
3.591696e+04, 3.434336e+12
3.595288e+04, 3.532618e+12
3.598883e+04, 3.475369e+12
3.602482e+04, 3.481481e+12
3.606085e+04, 3.506150e+12
3.609691e+04, 3.496355e+12
3.613300e+04, 3.470463e+12
3.616914e+04, 3.453610e+12
3.620531e+04, 3.451050e+12
3.624151e+04, 3.435990e+12
3.627775e+04, 3.437361e+12
3.631403e+04, 3.343264e+12
3.635035e+04, 3.274607e+12
3.638670e+04, 3.177908e+12
3.642308e+04, 3.381524e+12
3.645951e+04, 3.359990e+12
3.649596e+04, 3.332798e+12
3.653246e+04, 3.326619e+12
3.656899e+04, 3.251540e+12
3.660556e+04, 3.206699e+12
3.664217e+04, 3.236832e+12
3.667881e+04, 3.306031e+12
3.671549e+04, 3.303707e+12
3.675220e+04, 3.281838e+12
3.678896e+04, 3.254567e+12
3.682575e+04, 3.262260e+12
3.686257e+04, 3.241763e+12
3.689943e+04, 3.242131e+12
3.693633e+04, 3.191183e+12
3.697327e+04, 3.018746e+12
3.701024e+04, 3.109492e+12
3.704725e+04, 3.089843e+12
3.708430e+04, 3.008403e+12
3.712138e+04, 3.163149e+12
3.715851e+04, 3.139470e+12
3.719566e+04, 3.154306e+12
3.723286e+04, 3.142523e+12
3.727009e+04, 3.141097e+12
3.730736e+04, 3.119200e+12
3.734467e+04, 2.912793e+12
3.738202e+04, 3.027692e+12
3.741940e+04, 3.081439e+12
3.745682e+04, 3.077994e+12
3.749427e+04, 3.077175e+12
3.753177e+04, 3.065677e+12
3.756930e+04, 3.051552e+12
3.760687e+04, 3.021007e+12
3.764448e+04, 2.950159e+12
3.768212e+04, 2.947396e+12
3.771980e+04, 2.973853e+12
3.775752e+04, 2.912327e+12
3.779528e+04, 2.895773e+12
3.783307e+04, 2.936874e+12
3.787091e+04, 2.975764e+12
3.790878e+04, 2.965525e+12
3.794669e+04, 2.953782e+12
3.798463e+04, 2.931467e+12
3.802262e+04, 2.939908e+12
3.806064e+04, 2.902663e+12
3.809870e+04, 2.834212e+12
3.813680e+04, 2.741595e+12
3.817494e+04, 2.879768e+12
3.821311e+04, 2.881609e+12
3.825133e+04, 2.865386e+12
3.828958e+04, 2.856743e+12
3.832787e+04, 2.793306e+12
3.836619e+04, 2.747045e+12
3.840456e+04, 2.764443e+12
3.844297e+04, 2.823584e+12
3.848141e+04, 2.784809e+12
3.851989e+04, 2.751629e+12
3.855841e+04, 2.714462e+12
3.859697e+04, 2.737637e+12
3.863556e+04, 2.722818e+12
3.867420e+04, 2.645769e+12
3.871287e+04, 2.714354e+12
3.875159e+04, 2.731105e+12
3.879034e+04, 2.725798e+12
3.882913e+04, 2.725836e+12
3.886796e+04, 2.696350e+12
3.890683e+04, 2.684439e+12
3.894573e+04, 2.551202e+12
3.898468e+04, 2.629222e+12
3.902366e+04, 2.659112e+12
3.906269e+04, 2.607998e+12
3.910175e+04, 2.520567e+12
3.914085e+04, 2.590527e+12
3.917999e+04, 2.639162e+12
3.921917e+04, 2.618727e+12
3.925839e+04, 2.619547e+12
3.929765e+04, 2.590464e+12
3.933695e+04, 2.534161e+12
3.937628e+04, 2.521203e+12
3.941566e+04, 2.582730e+12
3.945508e+04, 2.571671e+12
3.949453e+04, 2.548938e+12
3.953403e+04, 2.516044e+12
3.957356e+04, 2.534531e+12
3.961313e+04, 2.533638e+12
3.965275e+04, 2.524884e+12
3.969240e+04, 2.513679e+12
3.973209e+04, 2.500027e+12
3.977182e+04, 2.462753e+12
3.981160e+04, 2.350594e+12
3.985141e+04, 2.365382e+12
3.989126e+04, 2.406620e+12
3.993115e+04, 2.424900e+12
3.997108e+04, 2.438354e+12
4.001105e+04, 2.437662e+12
4.005106e+04, 2.419734e+12
4.009111e+04, 2.416686e+12
4.013121e+04, 2.407974e+12
4.017134e+04, 2.356362e+12
4.021151e+04, 2.296771e+12
4.025172e+04, 2.377399e+12
4.029197e+04, 2.377005e+12
4.033226e+04, 2.367274e+12
4.037260e+04, 2.362857e+12
4.041297e+04, 2.336882e+12
4.045338e+04, 2.235602e+12
4.049383e+04, 2.313741e+12
4.053433e+04, 2.292132e+12
4.057486e+04, 2.284200e+12
4.061544e+04, 2.282320e+12
4.065605e+04, 2.287717e+12
4.069671e+04, 2.200367e+12
4.073741e+04, 2.194660e+12
4.077814e+04, 2.234336e+12
4.081892e+04, 2.250099e+12
4.085974e+04, 2.211817e+12
4.090060e+04, 2.223248e+12
4.094150e+04, 2.224121e+12
4.098244e+04, 2.218027e+12
4.102342e+04, 2.216801e+12
4.106445e+04, 2.186362e+12
4.110551e+04, 2.115243e+12
4.114662e+04, 2.183450e+12
4.118776e+04, 2.177642e+12
4.122895e+04, 2.167997e+12
4.127018e+04, 2.145033e+12
4.131145e+04, 2.139023e+12
4.135276e+04, 2.120058e+12
4.139412e+04, 2.097838e+12
4.143551e+04, 2.120696e+12
4.147695e+04, 2.122295e+12
4.151842e+04, 2.119957e+12
4.155994e+04, 2.088908e+12
4.160150e+04, 2.052446e+12
4.164310e+04, 2.077867e+12
4.168475e+04, 1.989116e+12
4.172643e+04, 2.044090e+12
4.176816e+04, 2.065286e+12
4.180992e+04, 2.059986e+12
4.185173e+04, 2.021534e+12
4.189359e+04, 2.044285e+12
4.193548e+04, 2.011454e+12
4.197742e+04, 2.029745e+12
4.201939e+04, 1.956664e+12
4.206141e+04, 1.973960e+12
4.210347e+04, 1.983281e+12
4.214558e+04, 1.987792e+12
4.218772e+04, 1.971664e+12
4.222991e+04, 1.958715e+12
4.227214e+04, 1.971729e+12
4.231441e+04, 1.977950e+12
4.235673e+04, 1.970747e+12
4.239908e+04, 1.960143e+12
4.244148e+04, 1.951370e+12
4.248392e+04, 1.914548e+12
4.252641e+04, 1.881676e+12
4.256893e+04, 1.922651e+12
4.261150e+04, 1.914579e+12
4.265411e+04, 1.911142e+12
4.269677e+04, 1.866086e+12
4.273947e+04, 1.858039e+12
4.278221e+04, 1.900662e+12
4.282499e+04, 1.887553e+12
4.286781e+04, 1.885218e+12
4.291068e+04, 1.874495e+12
4.295359e+04, 1.722723e+12
4.299654e+04, 1.727749e+12
4.303954e+04, 1.721745e+12
4.308258e+04, 1.768015e+12
4.312566e+04, 1.758807e+12
4.316879e+04, 1.768404e+12
4.321196e+04, 1.767018e+12
4.325517e+04, 1.758699e+12
4.329842e+04, 1.747830e+12
4.334172e+04, 1.760208e+12
4.338506e+04, 1.737170e+12
4.342845e+04, 1.717907e+12
4.347188e+04, 1.715935e+12
4.351535e+04, 1.619278e+12
4.355887e+04, 1.635578e+12
4.360242e+04, 1.664221e+12
4.364603e+04, 1.663114e+12
4.368967e+04, 1.623680e+12
4.373336e+04, 1.639787e+12
4.377710e+04, 1.622897e+12
4.382087e+04, 1.621866e+12
4.386469e+04, 1.625688e+12
4.390856e+04, 1.644357e+12
4.395247e+04, 1.601257e+12
4.399642e+04, 1.620163e+12
4.404042e+04, 1.578519e+12
4.408446e+04, 1.489205e+12
4.412854e+04, 1.530497e+12
4.417267e+04, 1.534041e+12
4.421684e+04, 1.551699e+12
4.426106e+04, 1.540582e+12
4.430532e+04, 1.534729e+12
4.434963e+04, 1.498427e+12
4.439398e+04, 1.508708e+12
4.443837e+04, 1.542591e+12
4.448281e+04, 1.496124e+12
4.452729e+04, 1.524112e+12
4.457182e+04, 1.485282e+12
4.461639e+04, 1.512270e+12
4.466101e+04, 1.427690e+12
4.470567e+04, 1.443298e+12
4.475037e+04, 1.481390e+12
4.479512e+04, 1.414073e+12
4.483992e+04, 1.469356e+12
4.488476e+04, 1.435171e+12
4.492964e+04, 1.436934e+12
4.497457e+04, 1.456295e+12
4.501955e+04, 1.440200e+12
4.506457e+04, 1.410426e+12
4.510963e+04, 1.410132e+12
4.515474e+04, 1.409215e+12
4.519990e+04, 1.380179e+12
4.524510e+04, 1.392708e+12
4.529034e+04, 1.391846e+12
4.533563e+04, 1.343192e+12
4.538097e+04, 1.381181e+12
4.542635e+04, 1.394845e+12
4.547177e+04, 1.369547e+12
4.551725e+04, 1.337366e+12
4.556276e+04, 1.377063e+12
4.560833e+04, 1.348858e+12
4.565393e+04, 1.346548e+12
4.569959e+04, 1.360650e+12
4.574529e+04, 1.324889e+12
4.579103e+04, 1.358013e+12
4.583682e+04, 1.319550e+12
4.588266e+04, 1.276032e+12
4.592854e+04, 1.338611e+12
4.597447e+04, 1.305786e+12
4.602045e+04, 1.309063e+12
4.606647e+04, 1.318063e+12
4.611253e+04, 1.304141e+12
4.615865e+04, 1.254159e+12
4.620480e+04, 1.314412e+12
4.625101e+04, 1.253988e+12
4.629726e+04, 1.316877e+12
4.634356e+04, 1.299245e+12
4.638990e+04, 1.248492e+12
4.643629e+04, 1.290555e+12
4.648273e+04, 1.253330e+12
4.652921e+04, 1.270716e+12
4.657574e+04, 1.282676e+12
4.662231e+04, 1.251763e+12
4.666894e+04, 1.239116e+12
4.671561e+04, 1.276889e+12
4.676232e+04, 1.256221e+12
4.680908e+04, 1.216297e+12
4.685589e+04, 1.272307e+12
4.690275e+04, 1.213838e+12
4.694965e+04, 1.262039e+12
4.699660e+04, 1.214136e+12
4.704360e+04, 1.240244e+12
4.709064e+04, 1.208386e+12
4.713773e+04, 1.214198e+12
4.718487e+04, 1.195022e+12
4.723205e+04, 1.244627e+12
4.727929e+04, 1.188296e+12
4.732657e+04, 1.189250e+12
4.737389e+04, 1.202995e+12
4.742127e+04, 1.197695e+12
4.746869e+04, 1.195861e+12
4.751616e+04, 1.183614e+12
4.756367e+04, 1.167334e+12
4.761124e+04, 1.177616e+12
4.765885e+04, 1.157147e+12
4.770651e+04, 1.187277e+12
4.775421e+04, 1.160528e+12
4.780197e+04, 1.159451e+12
4.784977e+04, 1.135366e+12
4.789762e+04, 1.194217e+12
4.794552e+04, 1.095572e+12
4.799346e+04, 1.166254e+12
4.804146e+04, 1.126521e+12
4.808950e+04, 1.142830e+12
4.813759e+04, 1.110892e+12
4.818572e+04, 1.145671e+12
4.823391e+04, 1.123973e+12
4.828214e+04, 1.157558e+12
4.833043e+04, 1.099467e+12
4.837876e+04, 1.125052e+12
4.842713e+04, 1.103616e+12
4.847556e+04, 1.121522e+12
4.852404e+04, 1.097411e+12
4.857256e+04, 1.116108e+12
4.862113e+04, 1.094674e+12
4.866976e+04, 1.094882e+12
4.871842e+04, 1.062708e+12
4.876714e+04, 1.061395e+12
4.881591e+04, 1.104334e+12
4.886473e+04, 1.063283e+12
4.891359e+04, 1.083433e+12
4.896250e+04, 1.040939e+12
4.901147e+04, 1.089283e+12
4.906048e+04, 1.068916e+12
4.910954e+04, 1.058691e+12
4.915865e+04, 1.049035e+12
4.920781e+04, 1.046915e+12
4.925702e+04, 1.019723e+12
4.930627e+04, 1.044890e+12
4.935558e+04, 1.022372e+12
4.940493e+04, 1.065259e+12
4.945434e+04, 1.029724e+12
4.950379e+04, 1.016241e+12
4.955330e+04, 1.004467e+12
4.960285e+04, 1.000163e+12
4.965245e+04, 1.036508e+12
4.970211e+04, 9.832442e+11
4.975181e+04, 1.045766e+12
4.980156e+04, 9.943735e+11
4.985136e+04, 1.019017e+12
4.990121e+04, 9.685975e+11
4.995111e+04, 1.005726e+12
5.000106e+04, 9.693801e+11
5.005107e+04, 9.952672e+11
5.010112e+04, 9.657618e+11
5.015122e+04, 9.778765e+11
5.020137e+04, 9.525136e+11
5.025157e+04, 9.681094e+11
5.030182e+04, 9.523911e+11
5.035212e+04, 9.713894e+11
5.040248e+04, 9.592426e+11
5.045288e+04, 9.483455e+11
5.050333e+04, 9.947872e+11
5.055383e+04, 9.300686e+11
5.060439e+04, 9.506219e+11
5.065499e+04, 9.168821e+11
5.070565e+04, 9.689099e+11
5.075635e+04, 9.396504e+11
5.080711e+04, 9.108532e+11
5.085792e+04, 9.457751e+11
5.090878e+04, 9.102295e+11
5.095968e+04, 9.179128e+11
5.101064e+04, 9.323498e+11
5.106165e+04, 9.004096e+11
5.111272e+04, 9.143051e+11
5.116383e+04, 9.198171e+11
5.121499e+04, 8.938409e+11
5.126621e+04, 9.091472e+11
5.131747e+04, 8.780730e+11
5.136879e+04, 9.175568e+11
5.142016e+04, 9.039972e+11
5.147158e+04, 8.539804e+11
5.152305e+04, 9.187804e+11
5.157457e+04, 8.768782e+11
5.162615e+04, 8.767511e+11
5.167778e+04, 8.739018e+11
5.172945e+04, 8.660146e+11
5.178118e+04, 8.851925e+11
5.183296e+04, 8.699773e+11
5.188480e+04, 8.677892e+11
5.193668e+04, 8.726460e+11
5.198862e+04, 8.382381e+11
5.204061e+04, 8.540983e+11
5.209265e+04, 8.744177e+11
5.214474e+04, 8.446788e+11
5.219688e+04, 8.533735e+11
5.224908e+04, 8.309550e+11
5.230133e+04, 8.373005e+11
5.235363e+04, 8.526702e+11
5.240599e+04, 8.177825e+11
5.245839e+04, 8.373287e+11
5.251085e+04, 8.278979e+11
5.256336e+04, 8.223263e+11
5.261592e+04, 8.431357e+11
5.266854e+04, 8.204706e+11
5.272121e+04, 8.136590e+11
5.277393e+04, 8.315706e+11
5.282670e+04, 7.943090e+11
5.287953e+04, 8.191805e+11
5.293241e+04, 7.985234e+11
5.298534e+04, 7.990213e+11
5.303833e+04, 8.165916e+11
5.309137e+04, 7.730658e+11
5.314446e+04, 8.031775e+11
5.319760e+04, 7.907502e+11
5.325080e+04, 7.797729e+11
5.330405e+04, 7.873182e+11
5.335735e+04, 7.945278e+11
5.341071e+04, 7.722547e+11
5.346412e+04, 7.833271e+11
5.351759e+04, 7.691069e+11
5.357110e+04, 7.789961e+11
5.362468e+04, 7.746783e+11
5.367830e+04, 7.651394e+11
5.373198e+04, 7.717651e+11
5.378571e+04, 7.511515e+11
5.383950e+04, 7.666765e+11
5.389334e+04, 7.579153e+11
5.394723e+04, 7.535457e+11
5.400118e+04, 7.605097e+11
5.405518e+04, 7.565461e+11
5.410923e+04, 7.281593e+11
5.416334e+04, 7.494297e+11
5.421751e+04, 7.371885e+11
5.427172e+04, 7.279565e+11
5.432599e+04, 7.417256e+11
5.438032e+04, 7.196067e+11
5.443470e+04, 7.417117e+11
5.448914e+04, 7.409929e+11
5.454362e+04, 7.120794e+11
5.459817e+04, 7.290038e+11
5.465277e+04, 7.180467e+11
5.470742e+04, 7.164752e+11
5.476213e+04, 7.146258e+11
5.481689e+04, 7.193937e+11
5.487171e+04, 7.204654e+11
5.492658e+04, 7.022382e+11
5.498150e+04, 7.073019e+11
5.503649e+04, 7.174755e+11
5.509152e+04, 6.919001e+11
5.514661e+04, 6.969354e+11
5.520176e+04, 7.107829e+11
5.525696e+04, 6.791069e+11
5.531222e+04, 6.842602e+11
5.536753e+04, 7.134601e+11
5.542290e+04, 6.792105e+11
5.547832e+04, 6.761143e+11
5.553380e+04, 6.908205e+11
5.558933e+04, 6.780449e+11
5.564492e+04, 6.724537e+11
5.570057e+04, 6.825851e+11
5.575627e+04, 6.734964e+11
5.581202e+04, 6.647890e+11
5.586784e+04, 6.695597e+11
5.592370e+04, 6.737927e+11
5.597963e+04, 6.718364e+11
5.603561e+04, 6.605862e+11
5.609164e+04, 6.659333e+11
5.614774e+04, 6.616903e+11
5.620388e+04, 6.435532e+11
5.626009e+04, 6.571743e+11
5.631635e+04, 6.499818e+11
5.637266e+04, 6.463920e+11
5.642904e+04, 6.486242e+11
5.648546e+04, 6.494790e+11
5.654195e+04, 6.381199e+11
5.659849e+04, 6.394969e+11
5.665509e+04, 6.370316e+11
5.671175e+04, 6.482158e+11
5.676846e+04, 6.251606e+11
5.682523e+04, 6.270386e+11
5.688205e+04, 6.329441e+11
5.693893e+04, 6.176715e+11
5.699587e+04, 6.299242e+11
5.705287e+04, 6.322685e+11
5.710992e+04, 6.179834e+11
5.716703e+04, 6.068810e+11
5.722420e+04, 6.157030e+11
5.728142e+04, 6.171735e+11
5.733870e+04, 5.978163e+11
5.739604e+04, 6.125066e+11
5.745344e+04, 6.169051e+11
5.751089e+04, 6.076436e+11
5.756840e+04, 6.030676e+11
5.762597e+04, 6.025687e+11
5.768360e+04, 6.064233e+11
5.774128e+04, 5.936852e+11
5.779902e+04, 5.928008e+11
5.785682e+04, 5.988283e+11
5.791468e+04, 5.902449e+11
5.797259e+04, 5.830641e+11
5.803056e+04, 5.985143e+11
5.808860e+04, 5.937711e+11
5.814668e+04, 5.755999e+11
5.820483e+04, 5.791684e+11
5.826304e+04, 5.850394e+11
5.832130e+04, 5.721357e+11
5.837962e+04, 5.709462e+11
5.843800e+04, 5.775231e+11
5.849644e+04, 5.749985e+11
5.855493e+04, 5.630155e+11
5.861349e+04, 5.748014e+11
5.867210e+04, 5.737414e+11
5.873077e+04, 5.558152e+11
5.878951e+04, 5.619175e+11
5.884829e+04, 5.610708e+11
5.890714e+04, 5.691309e+11
5.896605e+04, 5.460099e+11
5.902502e+04, 5.483365e+11
5.908404e+04, 5.572954e+11
5.914313e+04, 5.503824e+11
5.920227e+04, 5.486772e+11
5.926147e+04, 5.541123e+11
5.932073e+04, 5.504187e+11
5.938005e+04, 5.396338e+11
5.943943e+04, 5.436486e+11
5.949887e+04, 5.397458e+11
5.955837e+04, 5.398791e+11
5.961793e+04, 5.338464e+11
5.967755e+04, 5.306091e+11
5.973723e+04, 5.370481e+11
5.979696e+04, 5.288885e+11
5.985676e+04, 5.302914e+11
5.991662e+04, 5.282963e+11
5.997653e+04, 5.259412e+11
6.003651e+04, 5.269794e+11
6.009655e+04, 5.285821e+11
6.015664e+04, 5.213022e+11
6.021680e+04, 5.146452e+11
6.027702e+04, 5.209515e+11
6.033729e+04, 5.098180e+11
6.039763e+04, 5.081468e+11
6.045803e+04, 5.077921e+11
6.051849e+04, 5.087925e+11
6.057900e+04, 5.105976e+11
6.063958e+04, 5.047179e+11
6.070022e+04, 5.065524e+11
6.076092e+04, 5.055215e+11
6.082168e+04, 5.030648e+11
6.088251e+04, 4.953987e+11
6.094339e+04, 5.015422e+11
6.100433e+04, 4.935559e+11
6.106534e+04, 4.936563e+11
6.112640e+04, 4.855175e+11
6.118753e+04, 4.914389e+11
6.124872e+04, 4.904897e+11
6.130996e+04, 4.897780e+11
6.137127e+04, 4.897427e+11
6.143265e+04, 4.829768e+11
6.149408e+04, 4.816009e+11
6.155557e+04, 4.829898e+11
6.161713e+04, 4.789278e+11
6.167874e+04, 4.812547e+11
6.174042e+04, 4.701885e+11
6.180216e+04, 4.760870e+11
6.186397e+04, 4.725659e+11
6.192583e+04, 4.709437e+11
6.198776e+04, 4.677159e+11
6.204974e+04, 4.684746e+11
6.211179e+04, 4.696309e+11
6.217390e+04, 4.606242e+11
6.223608e+04, 4.638845e+11
6.229831e+04, 4.655978e+11
6.236061e+04, 4.617879e+11
6.242297e+04, 4.492340e+11
6.248540e+04, 4.535904e+11
6.254788e+04, 4.526295e+11
6.261043e+04, 4.502416e+11
6.267304e+04, 4.510684e+11
6.273571e+04, 4.462640e+11
6.279845e+04, 4.474319e+11
6.286125e+04, 4.505300e+11
6.292411e+04, 4.405850e+11
6.298703e+04, 4.419790e+11
6.305002e+04, 4.435194e+11
6.311307e+04, 4.401264e+11
6.317618e+04, 4.345422e+11
6.323936e+04, 4.372399e+11
6.330260e+04, 4.357205e+11
6.336590e+04, 4.323563e+11
6.342927e+04, 4.298304e+11
6.349270e+04, 4.293855e+11
6.355619e+04, 4.228540e+11
6.361975e+04, 4.272429e+11
6.368337e+04, 4.262400e+11
6.374705e+04, 4.246386e+11
6.381080e+04, 4.171626e+11
6.387461e+04, 4.164224e+11
6.393848e+04, 4.192383e+11
6.400242e+04, 4.184487e+11
6.406642e+04, 4.105072e+11
6.413049e+04, 4.089938e+11
6.419462e+04, 4.084177e+11
6.425881e+04, 4.121097e+11
6.432307e+04, 4.038901e+11
6.438740e+04, 4.038182e+11
6.445178e+04, 4.047986e+11
6.451623e+04, 3.956907e+11
6.458075e+04, 3.974797e+11
6.464533e+04, 3.980073e+11
6.470998e+04, 3.822534e+11
6.477469e+04, 3.844228e+11
6.483946e+04, 3.829234e+11
6.490430e+04, 3.889600e+11
6.496921e+04, 3.834961e+11
6.503417e+04, 3.775553e+11
6.509921e+04, 3.867503e+11
6.516431e+04, 3.762683e+11
6.522947e+04, 3.795497e+11
6.529470e+04, 3.729874e+11
6.536000e+04, 3.744024e+11
6.542536e+04, 3.701123e+11
6.549078e+04, 3.697168e+11
6.555627e+04, 3.685404e+11
6.562183e+04, 3.638632e+11
6.568745e+04, 3.605982e+11
6.575314e+04, 3.615537e+11
6.581889e+04, 3.654032e+11
6.588471e+04, 3.611266e+11
6.595059e+04, 3.478091e+11
6.601655e+04, 3.541423e+11
6.608256e+04, 3.611288e+11
6.614864e+04, 3.522763e+11
6.621479e+04, 3.429287e+11
6.628101e+04, 3.459042e+11
6.634729e+04, 3.445938e+11
6.641364e+04, 3.442709e+11
6.648005e+04, 3.492640e+11
6.654653e+04, 3.411698e+11
6.661308e+04, 3.429667e+11
6.667969e+04, 3.432306e+11
6.674637e+04, 3.410215e+11
6.681312e+04, 3.335194e+11
6.687993e+04, 3.319112e+11
6.694681e+04, 3.345769e+11
6.701376e+04, 3.372421e+11
6.708077e+04, 3.379251e+11
6.714785e+04, 3.332344e+11
6.721500e+04, 3.324599e+11
6.728221e+04, 3.295349e+11
6.734949e+04, 3.309826e+11
6.741684e+04, 3.296847e+11
6.748426e+04, 3.231020e+11
6.755175e+04, 3.264236e+11
6.761930e+04, 3.232478e+11
6.768692e+04, 3.197102e+11
6.775460e+04, 3.197811e+11
6.782236e+04, 3.148928e+11
6.789018e+04, 3.158320e+11
6.795807e+04, 3.160995e+11
6.802603e+04, 3.192210e+11
6.809405e+04, 3.142982e+11
6.816215e+04, 3.055996e+11
6.823031e+04, 3.127053e+11
6.829854e+04, 3.080859e+11
6.836684e+04, 3.047880e+11
6.843521e+04, 3.140206e+11
6.850364e+04, 3.094392e+11
6.857215e+04, 3.036581e+11
6.864072e+04, 3.054773e+11
6.870936e+04, 3.031633e+11
6.877807e+04, 3.053404e+11
6.884685e+04, 2.997751e+11
6.891569e+04, 3.014295e+11
6.898461e+04, 3.017838e+11
6.905359e+04, 2.934212e+11
6.912265e+04, 2.989630e+11
6.919177e+04, 2.938138e+11
6.926096e+04, 2.938981e+11
6.933022e+04, 2.956566e+11
6.939955e+04, 2.908800e+11
6.946895e+04, 2.922240e+11
6.953842e+04, 2.890290e+11
6.960796e+04, 2.894206e+11
6.967757e+04, 2.861109e+11
6.974724e+04, 2.869069e+11
6.981699e+04, 2.850644e+11
6.988681e+04, 2.884950e+11
6.995670e+04, 2.894423e+11
7.002665e+04, 2.807431e+11
7.009668e+04, 2.773489e+11
7.016678e+04, 2.810488e+11
7.023694e+04, 2.786780e+11
7.030718e+04, 2.762306e+11
7.037749e+04, 2.838223e+11
7.044786e+04, 2.777994e+11
7.051831e+04, 2.727820e+11
7.058883e+04, 2.781055e+11
7.065942e+04, 2.759651e+11
7.073008e+04, 2.714813e+11
7.080081e+04, 2.701302e+11
7.087161e+04, 2.718942e+11
7.094248e+04, 2.682194e+11
7.101342e+04, 2.679284e+11
7.108444e+04, 2.655917e+11
7.115552e+04, 2.682363e+11
7.122668e+04, 2.647031e+11
7.129790e+04, 2.662970e+11
7.136920e+04, 2.629647e+11
7.144057e+04, 2.623563e+11
7.151201e+04, 2.608760e+11
7.158352e+04, 2.656983e+11
7.165511e+04, 2.628942e+11
7.172676e+04, 2.595018e+11
7.179849e+04, 2.580125e+11
7.187029e+04, 2.584796e+11
7.194216e+04, 2.566629e+11
7.201410e+04, 2.555312e+11
7.208611e+04, 2.534831e+11
7.215820e+04, 2.531790e+11
7.223036e+04, 2.518813e+11
7.230259e+04, 2.520599e+11
7.237489e+04, 2.504257e+11
7.244727e+04, 2.501215e+11
7.251971e+04, 2.506089e+11
7.259223e+04, 2.463871e+11
7.266482e+04, 2.491931e+11
7.273749e+04, 2.416381e+11
7.281023e+04, 2.463859e+11
7.288304e+04, 2.466142e+11
7.295592e+04, 2.417777e+11
7.302888e+04, 2.417638e+11
7.310191e+04, 2.433633e+11
7.317501e+04, 2.427227e+11
7.324818e+04, 2.412020e+11
7.332143e+04, 2.369482e+11
7.339475e+04, 2.363802e+11
7.346815e+04, 2.357689e+11
7.354161e+04, 2.362001e+11
7.361516e+04, 2.349612e+11
7.368877e+04, 2.346958e+11
7.376246e+04, 2.314685e+11
7.383622e+04, 2.332697e+11
7.391006e+04, 2.351456e+11
7.398397e+04, 2.331045e+11
7.405795e+04, 2.316120e+11
7.413201e+04, 2.290535e+11
7.420614e+04, 2.280900e+11
7.428035e+04, 2.266272e+11
7.435463e+04, 2.237632e+11
7.442898e+04, 2.241288e+11
7.450341e+04, 2.256758e+11
7.457792e+04, 2.246564e+11
7.465249e+04, 2.240115e+11
7.472715e+04, 2.242181e+11
7.480187e+04, 2.231873e+11
7.487668e+04, 2.256419e+11
7.495155e+04, 2.177387e+11
7.502650e+04, 2.186286e+11
7.510153e+04, 2.210822e+11
7.517663e+04, 2.177075e+11
7.525181e+04, 2.169601e+11
7.532706e+04, 2.143865e+11
7.540239e+04, 2.140595e+11
7.547779e+04, 2.155228e+11
7.555327e+04, 2.140609e+11
7.562882e+04, 2.156449e+11
7.570445e+04, 2.094052e+11
7.578015e+04, 2.089886e+11
7.585593e+04, 2.068323e+11
7.593179e+04, 2.105557e+11
7.600772e+04, 2.037174e+11
7.608373e+04, 2.061318e+11
7.615981e+04, 2.031283e+11
7.623597e+04, 2.067947e+11
7.631221e+04, 1.998352e+11
7.638852e+04, 2.029624e+11
7.646491e+04, 2.015889e+11
7.654138e+04, 2.018077e+11
7.661792e+04, 1.991251e+11
7.669453e+04, 1.979339e+11
7.677123e+04, 1.996124e+11
7.684800e+04, 1.995437e+11
7.692485e+04, 1.974656e+11
7.700177e+04, 1.974416e+11
7.707877e+04, 1.942942e+11
7.715585e+04, 1.936828e+11
7.723301e+04, 1.934771e+11
7.731024e+04, 1.923257e+11
7.738755e+04, 1.884300e+11
7.746494e+04, 1.887584e+11
7.754241e+04, 1.912626e+11
7.761995e+04, 1.886739e+11
7.769757e+04, 1.875352e+11
7.777527e+04, 1.893207e+11
7.785304e+04, 1.849726e+11
7.793089e+04, 1.865282e+11
7.800882e+04, 1.817681e+11
7.808683e+04, 1.832188e+11
7.816492e+04, 1.840659e+11
7.824308e+04, 1.850708e+11
7.832133e+04, 1.823455e+11
7.839965e+04, 1.837138e+11
7.847805e+04, 1.832939e+11
7.855653e+04, 1.778769e+11
7.863508e+04, 1.782591e+11
7.871372e+04, 1.762403e+11
7.879243e+04, 1.778487e+11
7.887122e+04, 1.754735e+11
7.895010e+04, 1.733709e+11
7.902905e+04, 1.755175e+11
7.910808e+04, 1.746597e+11
7.918718e+04, 1.752825e+11
7.926637e+04, 1.724935e+11
7.934564e+04, 1.747278e+11
7.942498e+04, 1.726079e+11
7.950441e+04, 1.713638e+11
7.958391e+04, 1.704905e+11
7.966350e+04, 1.690241e+11
7.974316e+04, 1.682559e+11
7.982290e+04, 1.669959e+11
7.990273e+04, 1.670758e+11
7.998263e+04, 1.684103e+11
8.006261e+04, 1.669663e+11
8.014267e+04, 1.665145e+11
8.022282e+04, 1.638192e+11
8.030304e+04, 1.679450e+11
8.038334e+04, 1.632768e+11
8.046373e+04, 1.628956e+11
8.054419e+04, 1.628170e+11
8.062473e+04, 1.628503e+11
8.070536e+04, 1.616342e+11
8.078606e+04, 1.605945e+11
8.086685e+04, 1.619939e+11
8.094772e+04, 1.589467e+11
8.102866e+04, 1.575158e+11
8.110969e+04, 1.585370e+11
8.119080e+04, 1.577930e+11
8.127199e+04, 1.572402e+11
8.135326e+04, 1.586713e+11
8.143462e+04, 1.581375e+11
8.151605e+04, 1.559622e+11
8.159757e+04, 1.536006e+11
8.167917e+04, 1.563217e+11
8.176085e+04, 1.559679e+11
8.184261e+04, 1.542125e+11
8.192445e+04, 1.530309e+11
8.200637e+04, 1.503357e+11
8.208838e+04, 1.509655e+11
8.217047e+04, 1.515312e+11
8.225264e+04, 1.507445e+11
8.233489e+04, 1.496939e+11
8.241723e+04, 1.501636e+11
8.249964e+04, 1.508717e+11
8.258214e+04, 1.510993e+11
8.266473e+04, 1.473294e+11
8.274739e+04, 1.479319e+11
8.283014e+04, 1.442730e+11
8.291297e+04, 1.478457e+11
8.299588e+04, 1.459251e+11
8.307888e+04, 1.464821e+11
8.316196e+04, 1.442540e+11
8.324512e+04, 1.432056e+11
8.332836e+04, 1.419086e+11
8.341169e+04, 1.437829e+11
8.349510e+04, 1.423449e+11
8.357860e+04, 1.425630e+11
8.366218e+04, 1.419734e+11
8.374584e+04, 1.387156e+11
8.382958e+04, 1.391794e+11
8.391341e+04, 1.389180e+11
8.399733e+04, 1.399563e+11
8.408132e+04, 1.398659e+11
8.416541e+04, 1.406308e+11
8.424957e+04, 1.375741e+11
8.433382e+04, 1.374700e+11
8.441815e+04, 1.376279e+11
8.450257e+04, 1.365490e+11
8.458708e+04, 1.340293e+11
8.467166e+04, 1.359302e+11
8.475633e+04, 1.356807e+11
8.484109e+04, 1.339351e+11
8.492593e+04, 1.332815e+11
8.501086e+04, 1.311860e+11
8.509587e+04, 1.338862e+11
8.518096e+04, 1.322192e+11
8.526614e+04, 1.344937e+11
8.535141e+04, 1.302694e+11
8.543676e+04, 1.306069e+11
8.552220e+04, 1.303199e+11
8.560772e+04, 1.291420e+11
8.569333e+04, 1.289279e+11
8.577902e+04, 1.297018e+11
8.586480e+04, 1.285254e+11
8.595067e+04, 1.281684e+11
8.603662e+04, 1.285649e+11
8.612265e+04, 1.277490e+11
8.620878e+04, 1.252390e+11
8.629499e+04, 1.257835e+11
8.638128e+04, 1.276490e+11
8.646766e+04, 1.251897e+11
8.655413e+04, 1.246317e+11
8.664068e+04, 1.254276e+11
8.672732e+04, 1.233028e+11
8.681405e+04, 1.216954e+11
8.690087e+04, 1.241892e+11
8.698777e+04, 1.259271e+11
8.707475e+04, 1.212280e+11
8.716183e+04, 1.205298e+11
8.724899e+04, 1.213040e+11
8.733624e+04, 1.195521e+11
8.742358e+04, 1.202238e+11
8.751100e+04, 1.192794e+11
8.759851e+04, 1.173039e+11
8.768611e+04, 1.183766e+11
8.777379e+04, 1.193098e+11
8.786157e+04, 1.177642e+11
8.794943e+04, 1.179588e+11
8.803738e+04, 1.153781e+11
8.812542e+04, 1.170040e+11
8.821354e+04, 1.155683e+11
8.830176e+04, 1.161425e+11
8.839006e+04, 1.152252e+11
8.847845e+04, 1.159037e+11
8.856693e+04, 1.136554e+11
8.865549e+04, 1.136512e+11
8.874415e+04, 1.145411e+11
8.883289e+04, 1.138485e+11
8.892173e+04, 1.125412e+11
8.901065e+04, 1.135119e+11
8.909966e+04, 1.115197e+11
8.918876e+04, 1.114759e+11
8.927795e+04, 1.122302e+11
8.936722e+04, 1.111934e+11
8.945659e+04, 1.093885e+11
8.954605e+04, 1.101291e+11
8.963559e+04, 1.097931e+11
8.972523e+04, 1.086650e+11
8.981496e+04, 1.075804e+11
8.990477e+04, 1.097040e+11
8.999467e+04, 1.079684e+11
9.008467e+04, 1.089195e+11
9.017475e+04, 1.068691e+11
9.026493e+04, 1.073119e+11
9.035519e+04, 1.062684e+11
9.044555e+04, 1.070229e+11
9.053599e+04, 1.067940e+11
9.062653e+04, 1.045629e+11
9.071716e+04, 1.055825e+11
9.080787e+04, 1.050555e+11
9.089868e+04, 1.032766e+11
9.098958e+04, 1.049676e+11
9.108057e+04, 1.028878e+11
9.117165e+04, 1.036196e+11
9.126282e+04, 1.021648e+11
9.135409e+04, 1.020821e+11
9.144544e+04, 1.027351e+11
9.153688e+04, 1.003965e+11
9.162842e+04, 1.024336e+11
9.172005e+04, 9.974777e+10
9.181177e+04, 1.009549e+11
9.190358e+04, 9.986006e+10
9.199549e+04, 9.893522e+10
9.208748e+04, 9.967358e+10
9.217957e+04, 9.878639e+10
9.227175e+04, 9.876648e+10
9.236402e+04, 9.867693e+10
9.245638e+04, 9.771253e+10
9.254884e+04, 9.679821e+10
9.264139e+04, 9.623174e+10
9.273403e+04, 9.681241e+10
9.282676e+04, 9.640694e+10
9.291959e+04, 9.569429e+10
9.301251e+04, 9.495806e+10
9.310552e+04, 9.514061e+10
9.319863e+04, 9.373322e+10
9.329183e+04, 9.382607e+10
9.338512e+04, 9.385690e+10
9.347850e+04, 9.452843e+10
9.357198e+04, 9.394754e+10
9.366556e+04, 9.410900e+10
9.375922e+04, 9.231308e+10
9.385298e+04, 9.249241e+10
9.394683e+04, 9.056036e+10
9.404078e+04, 9.174768e+10
9.413482e+04, 9.109477e+10
9.422896e+04, 9.132212e+10
9.432318e+04, 9.147910e+10
9.441751e+04, 8.907129e+10
9.451192e+04, 9.064886e+10
9.460644e+04, 8.941896e+10
9.470104e+04, 8.915443e+10
9.479574e+04, 8.841889e+10
9.489054e+04, 8.950879e+10
9.498543e+04, 8.799893e+10
9.508042e+04, 8.808708e+10
9.517550e+04, 8.767188e+10
9.527067e+04, 8.811940e+10
9.536594e+04, 8.734765e+10
9.546131e+04, 8.781128e+10
9.555677e+04, 8.654689e+10
9.565233e+04, 8.492070e+10
9.574798e+04, 8.582597e+10
9.584373e+04, 8.523432e+10
9.593957e+04, 8.486979e+10
9.603551e+04, 8.425949e+10
9.613155e+04, 8.458716e+10
9.622768e+04, 8.401681e+10
9.632390e+04, 8.371377e+10
9.642023e+04, 8.355507e+10
9.651665e+04, 8.372512e+10
9.661317e+04, 8.231962e+10
9.670978e+04, 8.161405e+10
9.680649e+04, 8.160864e+10
9.690330e+04, 8.291864e+10
9.700020e+04, 8.140727e+10
9.709720e+04, 8.150677e+10
9.719430e+04, 8.074817e+10
9.729149e+04, 8.099466e+10
9.738878e+04, 8.027586e+10
9.748617e+04, 8.049792e+10
9.758366e+04, 8.022203e+10
9.768124e+04, 8.008438e+10
9.777892e+04, 7.808923e+10
9.787670e+04, 7.759130e+10
9.797458e+04, 7.911456e+10
9.807255e+04, 7.856644e+10
9.817062e+04, 7.765124e+10
9.826879e+04, 7.774108e+10
9.836706e+04, 7.812729e+10
9.846543e+04, 7.740683e+10
9.856390e+04, 7.605918e+10
9.866246e+04, 7.655366e+10
9.876112e+04, 7.740366e+10
9.885988e+04, 7.475940e+10
9.895874e+04, 7.446813e+10
9.905770e+04, 7.510861e+10
9.915676e+04, 7.393978e+10
9.925592e+04, 7.291205e+10
9.935517e+04, 7.467836e+10
9.945453e+04, 7.445928e+10
9.955398e+04, 7.400850e+10
9.965354e+04, 7.333783e+10
9.975319e+04, 7.367812e+10
9.985294e+04, 7.306284e+10
9.995280e+04, 7.260530e+10
1.000527e+05, 7.301170e+10
1.001528e+05, 7.242937e+10
1.002530e+05, 7.238329e+10
1.003532e+05, 7.174042e+10
1.004536e+05, 7.245562e+10
1.005540e+05, 7.115840e+10
1.006546e+05, 6.921669e+10
1.007552e+05, 6.999511e+10
1.008560e+05, 6.987359e+10
1.009568e+05, 7.030292e+10
1.010578e+05, 6.986230e+10
1.011588e+05, 6.971554e+10
1.012600e+05, 6.961846e+10
1.013613e+05, 6.810514e+10
1.014626e+05, 6.902687e+10
1.015641e+05, 6.886830e+10
1.016657e+05, 6.911201e+10
1.017673e+05, 6.811829e+10
1.018691e+05, 6.744302e+10
1.019710e+05, 6.834098e+10
1.020729e+05, 6.744532e+10
1.021750e+05, 6.639764e+10
1.022772e+05, 6.607514e+10
1.023795e+05, 6.573645e+10
1.024818e+05, 6.598630e+10
1.025843e+05, 6.573110e+10
1.026869e+05, 6.617224e+10
1.027896e+05, 6.514837e+10
1.028924e+05, 6.542168e+10
1.029953e+05, 6.551597e+10
1.030983e+05, 6.477008e+10
1.032014e+05, 6.356181e+10
1.033046e+05, 6.417427e+10
1.034079e+05, 6.424115e+10
1.035113e+05, 6.422096e+10
1.036148e+05, 6.309111e+10
1.037184e+05, 6.321221e+10
1.038221e+05, 6.216479e+10
1.039259e+05, 6.275627e+10
1.040299e+05, 6.088091e+10
1.041339e+05, 6.202782e+10
1.042380e+05, 6.142008e+10
1.043423e+05, 6.108475e+10
1.044466e+05, 6.182979e+10
1.045511e+05, 6.113350e+10
1.046556e+05, 6.111497e+10
1.047603e+05, 5.988698e+10
1.048650e+05, 6.090839e+10
1.049699e+05, 6.060666e+10
1.050749e+05, 5.948845e+10
1.051799e+05, 5.994551e+10
1.052851e+05, 5.922828e+10
1.053904e+05, 5.925297e+10
1.054958e+05, 5.902270e+10
1.056013e+05, 5.868644e+10
1.057069e+05, 5.875322e+10
1.058126e+05, 5.860628e+10
1.059184e+05, 5.786851e+10
1.060243e+05, 5.649432e+10
1.061303e+05, 5.667528e+10
1.062365e+05, 5.836061e+10
1.063427e+05, 5.687975e+10
1.064491e+05, 5.786213e+10
1.065555e+05, 5.658120e+10
1.066621e+05, 5.699778e+10
1.067687e+05, 5.662940e+10
1.068755e+05, 5.525200e+10
1.069824e+05, 5.590560e+10
1.070894e+05, 5.479248e+10
1.071964e+05, 5.572746e+10
1.073036e+05, 5.517595e+10
1.074109e+05, 5.487971e+10
1.075184e+05, 5.434808e+10
1.076259e+05, 5.471412e+10
1.077335e+05, 5.472305e+10
1.078412e+05, 5.383199e+10
1.079491e+05, 5.359064e+10
1.080570e+05, 5.375879e+10
1.081651e+05, 5.305886e+10
1.082732e+05, 5.203468e+10
1.083815e+05, 5.409898e+10
1.084899e+05, 5.276753e+10
1.085984e+05, 5.328456e+10
1.087070e+05, 5.238286e+10
1.088157e+05, 5.190793e+10
1.089245e+05, 5.095127e+10
1.090334e+05, 5.117145e+10
1.091425e+05, 5.188741e+10
1.092516e+05, 5.166783e+10
1.093609e+05, 5.088725e+10
1.094702e+05, 5.096066e+10
1.095797e+05, 5.180736e+10
1.096893e+05, 5.039802e+10
1.097990e+05, 4.999773e+10
1.099088e+05, 4.989850e+10
1.100187e+05, 5.045791e+10
1.101287e+05, 5.005023e+10
1.102388e+05, 4.970004e+10
1.103491e+05, 5.004737e+10
1.104594e+05, 4.771109e+10
1.105699e+05, 4.774709e+10
1.106804e+05, 4.811324e+10
1.107911e+05, 4.814174e+10
1.109019e+05, 4.807545e+10
1.110128e+05, 4.887485e+10
1.111238e+05, 4.746282e+10
1.112349e+05, 4.827939e+10
1.113462e+05, 4.741169e+10
1.114575e+05, 4.859863e+10
1.115690e+05, 4.744784e+10
1.116806e+05, 4.729529e+10
1.117922e+05, 4.662893e+10
1.119040e+05, 4.692528e+10
1.120159e+05, 4.582170e+10
1.121279e+05, 4.612234e+10
1.122401e+05, 4.615516e+10
1.123523e+05, 4.615421e+10
1.124647e+05, 4.611619e+10
1.125771e+05, 4.563330e+10
1.126897e+05, 4.549566e+10
1.128024e+05, 4.572698e+10
1.129152e+05, 4.424566e+10
1.130281e+05, 4.397174e+10
1.131411e+05, 4.408180e+10
1.132543e+05, 4.394335e+10
1.133675e+05, 4.439525e+10
1.134809e+05, 4.471812e+10
1.135944e+05, 4.387123e+10
1.137080e+05, 4.374981e+10
1.138217e+05, 4.400647e+10
1.139355e+05, 4.324151e+10
1.140494e+05, 4.363752e+10
1.141635e+05, 4.427253e+10
1.142777e+05, 4.308285e+10
1.143919e+05, 4.245730e+10
1.145063e+05, 4.227564e+10
1.146208e+05, 4.306455e+10
1.147355e+05, 4.222094e+10
1.148502e+05, 4.191500e+10
1.149650e+05, 4.228320e+10
1.150800e+05, 4.197964e+10
1.151951e+05, 4.154874e+10
1.153103e+05, 4.146523e+10
1.154256e+05, 4.075365e+10
1.155410e+05, 4.038627e+10
1.156566e+05, 4.101631e+10
1.157722e+05, 4.064497e+10
1.158880e+05, 4.031395e+10
1.160039e+05, 3.946254e+10
1.161199e+05, 3.927784e+10
1.162360e+05, 4.018349e+10
1.163522e+05, 3.998602e+10
1.164686e+05, 4.025790e+10
1.165851e+05, 4.029468e+10
1.167016e+05, 4.001472e+10
1.168183e+05, 3.959616e+10
1.169352e+05, 3.951575e+10
1.170521e+05, 3.941953e+10
1.171691e+05, 3.893384e+10
1.172863e+05, 3.863910e+10
1.174036e+05, 3.812673e+10
1.175210e+05, 3.848888e+10
1.176385e+05, 3.823969e+10
1.177562e+05, 3.818942e+10
1.178739e+05, 3.834309e+10
1.179918e+05, 3.741512e+10
1.181098e+05, 3.776817e+10
1.182279e+05, 3.707085e+10
1.183461e+05, 3.670650e+10
1.184645e+05, 3.796557e+10
1.185829e+05, 3.665765e+10
1.187015e+05, 3.719677e+10
1.188202e+05, 3.749335e+10
1.189390e+05, 3.722618e+10
1.190580e+05, 3.595339e+10
1.191770e+05, 3.609142e+10
1.192962e+05, 3.561461e+10
1.194155e+05, 3.693866e+10
1.195349e+05, 3.616171e+10
1.196545e+05, 3.569164e+10
1.197741e+05, 3.635522e+10
1.198939e+05, 3.584311e+10
1.200138e+05, 3.548555e+10
1.201338e+05, 3.548470e+10
1.202539e+05, 3.482448e+10
1.203742e+05, 3.571115e+10
1.204946e+05, 3.449378e+10
1.206151e+05, 3.445468e+10
1.207357e+05, 3.528149e+10
1.208564e+05, 3.429445e+10
1.209773e+05, 3.412651e+10
1.210982e+05, 3.390653e+10
1.212193e+05, 3.378605e+10
1.213406e+05, 3.453741e+10
1.214619e+05, 3.350670e+10
1.215834e+05, 3.316890e+10
1.217049e+05, 3.402181e+10
1.218266e+05, 3.373858e+10
1.219485e+05, 3.349718e+10
1.220704e+05, 3.338588e+10
1.221925e+05, 3.307847e+10
1.223147e+05, 3.360114e+10
1.224370e+05, 3.281453e+10
1.225594e+05, 3.242068e+10
1.226820e+05, 3.198281e+10
1.228047e+05, 3.188977e+10
1.229275e+05, 3.246153e+10
1.230504e+05, 3.253924e+10
1.231735e+05, 3.166587e+10
1.232966e+05, 3.214015e+10
1.234199e+05, 3.197551e+10
1.235433e+05, 3.165772e+10
1.236669e+05, 3.113253e+10
1.237906e+05, 3.164507e+10
1.239144e+05, 3.187573e+10
1.240383e+05, 3.110075e+10
1.241623e+05, 3.068801e+10
1.242865e+05, 3.035959e+10
1.244108e+05, 3.027143e+10
1.245352e+05, 3.056580e+10
1.246597e+05, 3.090977e+10
1.247844e+05, 3.043726e+10
1.249091e+05, 3.061922e+10
1.250341e+05, 3.028775e+10
1.251591e+05, 3.030099e+10
1.252842e+05, 2.976931e+10
1.254095e+05, 2.974958e+10
1.255349e+05, 2.953557e+10
1.256605e+05, 2.954831e+10
1.257861e+05, 2.936796e+10
1.259119e+05, 2.945554e+10
1.260378e+05, 2.931406e+10
1.261639e+05, 2.964978e+10
1.262900e+05, 2.928111e+10
1.264163e+05, 2.823051e+10
1.265427e+05, 2.814350e+10
1.266693e+05, 2.780554e+10
1.267960e+05, 2.855630e+10
1.269227e+05, 2.889778e+10
1.270497e+05, 2.854165e+10
1.271767e+05, 2.860178e+10
1.273039e+05, 2.831437e+10
1.274312e+05, 2.869449e+10
1.275586e+05, 2.807392e+10
1.276862e+05, 2.786110e+10
1.278139e+05, 2.737798e+10
1.279417e+05, 2.715880e+10
1.280696e+05, 2.723638e+10
1.281977e+05, 2.755654e+10
1.283259e+05, 2.755274e+10
1.284542e+05, 2.715568e+10
1.285827e+05, 2.734469e+10
1.287113e+05, 2.751293e+10
1.288400e+05, 2.746351e+10
1.289688e+05, 2.687088e+10
1.290978e+05, 2.693336e+10
1.292269e+05, 2.634657e+10
1.293561e+05, 2.640310e+10
1.294855e+05, 2.652605e+10
1.296149e+05, 2.627563e+10
1.297446e+05, 2.617435e+10
1.298743e+05, 2.591872e+10
1.300042e+05, 2.602579e+10
1.301342e+05, 2.604063e+10
1.302643e+05, 2.549529e+10
1.303946e+05, 2.574290e+10
1.305250e+05, 2.562702e+10
1.306555e+05, 2.543525e+10
1.307862e+05, 2.525908e+10
1.309169e+05, 2.465934e+10
1.310479e+05, 2.556895e+10
1.311789e+05, 2.530351e+10
1.313101e+05, 2.527874e+10
1.314414e+05, 2.473601e+10
1.315728e+05, 2.483920e+10
1.317044e+05, 2.456234e+10
1.318361e+05, 2.418488e+10
1.319680e+05, 2.455466e+10
1.320999e+05, 2.380395e+10
1.322320e+05, 2.436376e+10
1.323643e+05, 2.438021e+10
1.324966e+05, 2.429599e+10
1.326291e+05, 2.376765e+10
1.327617e+05, 2.432185e+10
1.328945e+05, 2.382367e+10
1.330274e+05, 2.391718e+10
1.331604e+05, 2.356041e+10
1.332936e+05, 2.360711e+10
1.334269e+05, 2.325230e+10
1.335603e+05, 2.310658e+10
1.336939e+05, 2.335659e+10
1.338276e+05, 2.331999e+10
1.339614e+05, 2.345604e+10
1.340954e+05, 2.348247e+10
1.342294e+05, 2.287312e+10
1.343637e+05, 2.304445e+10
1.344980e+05, 2.262017e+10
1.346325e+05, 2.281674e+10
1.347672e+05, 2.264024e+10
1.349019e+05, 2.256808e+10
1.350368e+05, 2.273368e+10
1.351719e+05, 2.264580e+10
1.353070e+05, 2.196792e+10
1.354424e+05, 2.143766e+10
1.355778e+05, 2.166194e+10
1.357134e+05, 2.179669e+10
1.358491e+05, 2.204331e+10
1.359849e+05, 2.183438e+10
1.361209e+05, 2.147879e+10
1.362570e+05, 2.171234e+10
1.363933e+05, 2.116204e+10
1.365297e+05, 2.134307e+10
1.366662e+05, 2.171520e+10
1.368029e+05, 2.167534e+10
1.369397e+05, 2.101603e+10
1.370766e+05, 2.110581e+10
1.372137e+05, 2.097093e+10
1.373509e+05, 2.123175e+10
1.374883e+05, 2.088079e+10
1.376258e+05, 2.026267e+10
1.377634e+05, 2.052327e+10
1.379012e+05, 2.078086e+10
1.380391e+05, 2.096744e+10
1.381771e+05, 2.061179e+10
1.383153e+05, 2.066257e+10
1.384536e+05, 2.033845e+10
1.385920e+05, 2.025790e+10
1.387306e+05, 2.045987e+10
1.388694e+05, 2.030845e+10
1.390082e+05, 2.021644e+10
1.391472e+05, 2.013096e+10
1.392864e+05, 2.019693e+10
1.394257e+05, 2.002415e+10
1.395651e+05, 1.996913e+10
1.397047e+05, 1.948661e+10
1.398444e+05, 1.968152e+10
1.399842e+05, 1.952845e+10
1.401242e+05, 1.940924e+10
1.402643e+05, 1.957255e+10
1.404046e+05, 1.927468e+10
1.405450e+05, 1.902817e+10
1.406855e+05, 1.885468e+10
1.408262e+05, 1.891110e+10
1.409670e+05, 1.912054e+10
1.411080e+05, 1.896142e+10
1.412491e+05, 1.838499e+10
1.413904e+05, 1.861766e+10
1.415318e+05, 1.862715e+10
1.416733e+05, 1.838664e+10
1.418150e+05, 1.857425e+10
1.419568e+05, 1.835971e+10
1.420987e+05, 1.800672e+10
1.422408e+05, 1.828981e+10
1.423831e+05, 1.814822e+10
1.425255e+05, 1.843225e+10
1.426680e+05, 1.825758e+10
1.428107e+05, 1.821387e+10
1.429535e+05, 1.811937e+10
1.430964e+05, 1.817895e+10
1.432395e+05, 1.770145e+10
1.433828e+05, 1.781595e+10
1.435261e+05, 1.783650e+10
1.436697e+05, 1.776722e+10
1.438133e+05, 1.766733e+10
1.439571e+05, 1.755003e+10
1.441011e+05, 1.732093e+10
1.442452e+05, 1.736461e+10
1.443894e+05, 1.738264e+10
1.445338e+05, 1.719154e+10
1.446784e+05, 1.714008e+10
1.448231e+05, 1.701486e+10
1.449679e+05, 1.685059e+10
1.451128e+05, 1.725630e+10
1.452580e+05, 1.691641e+10
1.454032e+05, 1.699677e+10
1.455486e+05, 1.692047e+10
1.456942e+05, 1.700752e+10
1.458399e+05, 1.665220e+10
1.459857e+05, 1.666371e+10
1.461317e+05, 1.680982e+10
1.462778e+05, 1.589646e+10
1.464241e+05, 1.595838e+10
1.465705e+05, 1.557324e+10
1.467171e+05, 1.614434e+10
1.468638e+05, 1.613625e+10
1.470107e+05, 1.606950e+10
1.471577e+05, 1.580495e+10
1.473048e+05, 1.585704e+10
1.474521e+05, 1.598626e+10
1.475996e+05, 1.611071e+10
1.477472e+05, 1.589814e+10
1.478949e+05, 1.587138e+10
1.480428e+05, 1.602854e+10
1.481909e+05, 1.582142e+10
1.483391e+05, 1.561157e+10
1.484874e+05, 1.558571e+10
1.486359e+05, 1.539613e+10
1.487845e+05, 1.531425e+10
1.489333e+05, 1.527401e+10
1.490823e+05, 1.537794e+10
1.492313e+05, 1.515246e+10
1.493806e+05, 1.534339e+10
1.495299e+05, 1.517478e+10
1.496795e+05, 1.498520e+10
1.498292e+05, 1.487743e+10
1.499790e+05, 1.515148e+10
1.501290e+05, 1.488463e+10
1.502791e+05, 1.498487e+10
1.504294e+05, 1.449179e+10
1.505798e+05, 1.476060e+10
1.507304e+05, 1.489718e+10
1.508811e+05, 1.467265e+10
1.510320e+05, 1.452787e+10
1.511830e+05, 1.455269e+10
1.513342e+05, 1.431185e+10
1.514855e+05, 1.454847e+10
1.516370e+05, 1.449983e+10
1.517887e+05, 1.400737e+10
1.519405e+05, 1.423919e+10
1.520924e+05, 1.441604e+10
1.522445e+05, 1.400766e+10
1.523967e+05, 1.409591e+10
1.525491e+05, 1.368463e+10
1.527017e+05, 1.374625e+10
1.528544e+05, 1.357577e+10
1.530072e+05, 1.362722e+10
1.531602e+05, 1.357892e+10
1.533134e+05, 1.365955e+10
1.534667e+05, 1.359925e+10
1.536202e+05, 1.358724e+10
1.537738e+05, 1.348003e+10
1.539276e+05, 1.341744e+10
1.540815e+05, 1.360980e+10
1.542356e+05, 1.326908e+10
1.543898e+05, 1.330495e+10
1.545442e+05, 1.323309e+10
1.546988e+05, 1.319350e+10
1.548534e+05, 1.322942e+10
1.550083e+05, 1.322843e+10
1.551633e+05, 1.315388e+10
1.553185e+05, 1.308125e+10
1.554738e+05, 1.304896e+10
1.556293e+05, 1.289174e+10
1.557849e+05, 1.284432e+10
1.559407e+05, 1.290168e+10
1.560966e+05, 1.286545e+10
1.562527e+05, 1.285080e+10
1.564090e+05, 1.261538e+10
1.565654e+05, 1.268175e+10
1.567219e+05, 1.273993e+10
1.568787e+05, 1.261427e+10
1.570355e+05, 1.256112e+10
1.571926e+05, 1.244891e+10
1.573498e+05, 1.251671e+10
1.575071e+05, 1.226674e+10
1.576646e+05, 1.226593e+10
1.578223e+05, 1.243146e+10
1.579801e+05, 1.225526e+10
1.581381e+05, 1.213632e+10
1.582962e+05, 1.225093e+10
1.584545e+05, 1.210963e+10
1.586130e+05, 1.191239e+10
1.587716e+05, 1.212688e+10
1.589304e+05, 1.170451e+10
1.590893e+05, 1.171679e+10
1.592484e+05, 1.149639e+10
1.594076e+05, 1.187211e+10
1.595670e+05, 1.157070e+10
1.597266e+05, 1.157528e+10
1.598863e+05, 1.140933e+10
1.600462e+05, 1.145019e+10
1.602063e+05, 1.126823e+10
1.603665e+05, 1.149486e+10
1.605268e+05, 1.137405e+10
1.606874e+05, 1.151645e+10
1.608481e+05, 1.132434e+10
1.610089e+05, 1.126125e+10
1.611699e+05, 1.116767e+10
1.613311e+05, 1.133953e+10
1.614924e+05, 1.112250e+10
1.616539e+05, 1.106010e+10
1.618156e+05, 1.115569e+10
1.619774e+05, 1.109391e+10
1.621394e+05, 1.092897e+10
1.623015e+05, 1.108410e+10
1.624638e+05, 1.108058e+10
1.626263e+05, 1.087282e+10
1.627889e+05, 1.078571e+10
1.629517e+05, 1.092257e+10
1.631146e+05, 1.086905e+10
1.632777e+05, 1.069509e+10
1.634410e+05, 1.088588e+10
1.636045e+05, 1.089802e+10
1.637681e+05, 1.064112e+10
1.639318e+05, 1.041395e+10
1.640958e+05, 1.053716e+10
1.642599e+05, 1.054389e+10
1.644241e+05, 1.046973e+10
1.645885e+05, 1.055085e+10
1.647531e+05, 1.017746e+10
1.649179e+05, 1.036440e+10
1.650828e+05, 1.039797e+10
1.652479e+05, 1.030246e+10
1.654131e+05, 1.025348e+10
1.655785e+05, 9.957586e+09
1.657441e+05, 1.006077e+10
1.659099e+05, 1.007119e+10
1.660758e+05, 9.957688e+09
1.662419e+05, 9.813307e+09
1.664081e+05, 9.810415e+09
1.665745e+05, 9.826958e+09
1.667411e+05, 9.908710e+09
1.669078e+05, 9.938178e+09
1.670747e+05, 9.738645e+09
1.672418e+05, 9.651660e+09
1.674090e+05, 9.829320e+09
1.675765e+05, 9.597564e+09
1.677440e+05, 9.859605e+09
1.679118e+05, 9.633945e+09
1.680797e+05, 9.609277e+09
1.682478e+05, 9.501335e+09
1.684160e+05, 9.238190e+09
1.685844e+05, 9.588968e+09
1.687530e+05, 9.264012e+09
1.689218e+05, 9.406007e+09
1.690907e+05, 9.430979e+09
1.692598e+05, 9.257450e+09
1.694290e+05, 9.378235e+09
1.695985e+05, 9.379257e+09
1.697681e+05, 9.231347e+09
1.699378e+05, 9.183141e+09
1.701078e+05, 9.263933e+09
1.702779e+05, 9.175556e+09
1.704482e+05, 9.192205e+09
1.706186e+05, 9.116810e+09
1.707892e+05, 8.997441e+09
1.709600e+05, 9.033798e+09
1.711310e+05, 9.004276e+09
1.713021e+05, 8.824236e+09
1.714734e+05, 8.870534e+09
1.716449e+05, 8.904402e+09
1.718165e+05, 8.822057e+09
1.719883e+05, 8.745023e+09
1.721603e+05, 8.750908e+09
1.723325e+05, 8.619025e+09
1.725048e+05, 8.572903e+09
1.726773e+05, 8.579371e+09
1.728500e+05, 8.571137e+09
1.730229e+05, 8.597353e+09
1.731959e+05, 8.520949e+09
1.733691e+05, 8.463672e+09
1.735424e+05, 8.358978e+09
1.737160e+05, 8.382807e+09
1.738897e+05, 8.382978e+09
1.740636e+05, 8.268759e+09
1.742377e+05, 8.379169e+09
1.744119e+05, 8.262034e+09
1.745863e+05, 8.283252e+09
1.747609e+05, 8.178256e+09
1.749357e+05, 8.245903e+09
1.751106e+05, 8.225343e+09
1.752857e+05, 7.969901e+09
1.754610e+05, 8.018690e+09
1.756364e+05, 8.039770e+09
1.758121e+05, 8.056927e+09
1.759879e+05, 8.011282e+09
1.761639e+05, 8.000771e+09
1.763400e+05, 7.880141e+09
1.765164e+05, 7.900935e+09
1.766929e+05, 7.908214e+09
1.768696e+05, 7.911633e+09
1.770465e+05, 7.845986e+09
1.772235e+05, 7.775502e+09
1.774007e+05, 7.751887e+09
1.775781e+05, 7.757096e+09
1.777557e+05, 7.570278e+09
1.779335e+05, 7.749667e+09
1.781114e+05, 7.627629e+09
1.782895e+05, 7.633399e+09
1.784678e+05, 7.614857e+09
1.786463e+05, 7.617061e+09
1.788249e+05, 7.592740e+09
1.790037e+05, 7.608108e+09
1.791827e+05, 7.485857e+09
1.793619e+05, 7.386923e+09
1.795413e+05, 7.400896e+09
1.797208e+05, 7.458434e+09
1.799006e+05, 7.558553e+09
1.800805e+05, 7.374441e+09
1.802605e+05, 7.231195e+09
1.804408e+05, 7.332628e+09
1.806212e+05, 7.241395e+09
1.808019e+05, 7.163111e+09
1.809827e+05, 7.194338e+09
1.811636e+05, 7.243389e+09
1.813448e+05, 7.110778e+09
1.815262e+05, 6.986697e+09
1.817077e+05, 6.955492e+09
1.818894e+05, 6.970772e+09
1.820713e+05, 7.084170e+09
1.822533e+05, 7.009029e+09
1.824356e+05, 6.931563e+09
1.826180e+05, 6.962724e+09
1.828007e+05, 6.848594e+09
1.829835e+05, 6.870316e+09
1.831664e+05, 6.822124e+09
1.833496e+05, 6.923333e+09
1.835330e+05, 6.861032e+09
1.837165e+05, 6.790791e+09
1.839002e+05, 6.768079e+09
1.840841e+05, 6.731633e+09
1.842682e+05, 6.652334e+09
1.844525e+05, 6.783609e+09
1.846369e+05, 6.681698e+09
1.848215e+05, 6.687018e+09
1.850064e+05, 6.506774e+09
1.851914e+05, 6.519204e+09
1.853766e+05, 6.488235e+09
1.855619e+05, 6.457408e+09
1.857475e+05, 6.516868e+09
1.859333e+05, 6.384899e+09
1.861192e+05, 6.427823e+09
1.863053e+05, 6.387427e+09
1.864916e+05, 6.416638e+09
1.866781e+05, 6.359127e+09
1.868648e+05, 6.418262e+09
1.870516e+05, 6.344803e+09
1.872387e+05, 6.215611e+09
1.874259e+05, 6.312011e+09
1.876134e+05, 6.180775e+09
1.878010e+05, 6.243027e+09
1.879888e+05, 6.232390e+09
1.881768e+05, 6.193725e+09
1.883649e+05, 6.137049e+09
1.885533e+05, 6.107066e+09
1.887419e+05, 6.062780e+09
1.889306e+05, 6.052689e+09
1.891195e+05, 6.120266e+09
1.893086e+05, 6.032497e+09
1.894980e+05, 5.977875e+09
1.896875e+05, 5.955399e+09
1.898771e+05, 5.974494e+09
1.900670e+05, 5.887852e+09
1.902571e+05, 5.979382e+09
1.904473e+05, 5.822030e+09
1.906378e+05, 5.931529e+09
1.908284e+05, 5.797413e+09
1.910193e+05, 5.908920e+09
1.912103e+05, 5.868318e+09
1.914015e+05, 5.787701e+09
1.915929e+05, 5.850138e+09
1.917845e+05, 5.659509e+09
1.919763e+05, 5.691003e+09
1.921682e+05, 5.601976e+09
1.923604e+05, 5.633156e+09
1.925528e+05, 5.650524e+09
1.927453e+05, 5.627312e+09
1.929381e+05, 5.569429e+09
1.931310e+05, 5.606685e+09
1.933241e+05, 5.545391e+09
1.935175e+05, 5.512689e+09
1.937110e+05, 5.543243e+09
1.939047e+05, 5.575868e+09
1.940986e+05, 5.462943e+09
1.942927e+05, 5.401302e+09
1.944870e+05, 5.438814e+09
1.946815e+05, 5.452764e+09
1.948762e+05, 5.395131e+09
1.950710e+05, 5.468213e+09
1.952661e+05, 5.379906e+09
1.954614e+05, 5.378199e+09
1.956568e+05, 5.259070e+09
1.958525e+05, 5.211875e+09
1.960483e+05, 5.292126e+09
1.962444e+05, 5.153091e+09
1.964406e+05, 5.155343e+09
1.966371e+05, 5.196059e+09
1.968337e+05, 5.203445e+09
1.970305e+05, 5.228198e+09
1.972276e+05, 5.197095e+09
1.974248e+05, 5.111214e+09
1.976222e+05, 5.132851e+09
1.978198e+05, 5.108775e+09
1.980177e+05, 5.036201e+09
1.982157e+05, 5.013596e+09
1.984139e+05, 5.022496e+09
1.986123e+05, 5.026379e+09
1.988109e+05, 4.990486e+09
1.990097e+05, 4.952953e+09
1.992087e+05, 4.954790e+09
1.994080e+05, 4.881096e+09
1.996074e+05, 4.898302e+09
1.998070e+05, 4.961035e+09