wavelength[Angstrom], flux[erg / (cm3 s)]
1.000000e+03, 1.365181e-04
1.001000e+03, 7.254275e-05
1.002001e+03, 2.713176e-05
1.003003e+03, 3.927056e-05
1.004006e+03, 4.517754e-05
1.005010e+03, 5.196324e-05
1.006015e+03, 2.159401e-05
1.007021e+03, 5.556158e-05
1.008028e+03, 3.902589e-05
1.009036e+03, 4.302988e-05
1.010045e+03, 4.402642e-05
1.011055e+03, 5.467024e-05
1.012066e+03, 5.192275e-05
1.013078e+03, 4.254283e-05
1.014091e+03, 3.177380e-05
1.015105e+03, 1.258703e-04
1.016121e+03, 1.048862e-04
1.017137e+03, 4.479940e-05
1.018154e+03, 5.373311e-05
1.019172e+03, 1.225082e-04
1.020191e+03, 1.517158e-04
1.021211e+03, 8.995721e-05
1.022233e+03, 6.353447e-05
1.023255e+03, 6.468781e-05
1.024278e+03, 4.062465e-05
1.025302e+03, 2.976924e-06
1.026328e+03, 6.350948e-06
1.027354e+03, 6.298817e-05
1.028381e+03, 7.060930e-05
1.029410e+03, 9.996706e-05
1.030439e+03, 1.659911e-04
1.031470e+03, 1.557723e-04
1.032501e+03, 4.990368e-04
1.033533e+03, 1.838485e-04
1.034567e+03, 3.421783e-04
1.035602e+03, 2.316724e-04
1.036637e+03, 2.118031e-04
1.037674e+03, 8.139206e-04
1.038712e+03, 4.146579e-04
1.039750e+03, 3.557092e-04
1.040790e+03, 3.279742e-04
1.041831e+03, 5.809286e-04
1.042873e+03, 7.741889e-04
1.043915e+03, 5.745270e-04
1.044959e+03, 8.816413e-04
1.046004e+03, 5.398683e-04
1.047050e+03, 4.985440e-04
1.048097e+03, 6.117270e-04
1.049145e+03, 7.560571e-04
1.050195e+03, 3.617451e-04
1.051245e+03, 5.269161e-04
1.052296e+03, 4.078011e-04
1.053348e+03, 6.441629e-04
1.054402e+03, 8.441408e-04
1.055456e+03, 8.227611e-04
1.056512e+03, 6.258954e-04
1.057568e+03, 6.782132e-04
1.058626e+03, 5.826224e-04
1.059684e+03, 1.432642e-03
1.060744e+03, 2.584382e-03
1.061805e+03, 8.513955e-04
1.062867e+03, 1.746441e-03
1.063929e+03, 3.038636e-03
1.064993e+03, 5.568678e-04
1.066058e+03, 1.774865e-03
1.067124e+03, 1.421699e-03
1.068191e+03, 2.463404e-03
1.069260e+03, 2.658364e-03
1.070329e+03, 1.537306e-03
1.071399e+03, 1.628443e-03
1.072471e+03, 1.918567e-03
1.073543e+03, 2.703977e-03
1.074617e+03, 2.347103e-03
1.075691e+03, 5.921785e-03
1.076767e+03, 3.365997e-03
1.077844e+03, 1.497879e-03
1.078922e+03, 2.526040e-03
1.080001e+03, 5.204530e-03
1.081081e+03, 3.031031e-03
1.082162e+03, 6.897521e-03
1.083244e+03, 7.094144e-03
1.084327e+03, 6.729290e-03
1.085411e+03, 3.051933e-03
1.086497e+03, 5.306897e-03
1.087583e+03, 5.969345e-03
1.088671e+03, 6.411141e-03
1.089759e+03, 4.922387e-03
1.090849e+03, 9.278385e-03
1.091940e+03, 1.083102e-02
1.093032e+03, 1.023749e-02
1.094125e+03, 2.381746e-03
1.095219e+03, 9.835739e-03
1.096314e+03, 1.098639e-02
1.097411e+03, 9.140557e-03
1.098508e+03, 1.059825e-02
1.099607e+03, 5.193609e-03
1.100706e+03, 4.776577e-03
1.101807e+03, 6.604879e-03
1.102909e+03, 3.229350e-02
1.104012e+03, 1.416391e-02
1.105116e+03, 1.847695e-02
1.106221e+03, 2.105011e-02
1.107327e+03, 2.399297e-02
1.108434e+03, 8.958567e-03
1.109543e+03, 1.394985e-02
1.110652e+03, 2.026361e-02
1.111763e+03, 3.147859e-02
1.112875e+03, 3.155139e-02
1.113988e+03, 1.432923e-02
1.115102e+03, 1.607352e-02
1.116217e+03, 9.807855e-03
1.117333e+03, 3.763116e-02
1.118450e+03, 3.221414e-02
1.119569e+03, 2.068477e-02
1.120688e+03, 2.194744e-02
1.121809e+03, 5.279163e-02
1.122931e+03, 5.068580e-02
1.124054e+03, 2.892366e-02
1.125178e+03, 2.851491e-02
1.126303e+03, 1.073479e-01
1.127429e+03, 6.781414e-02
1.128557e+03, 6.410615e-02
1.129685e+03, 5.305866e-02
1.130815e+03, 6.869967e-02
1.131946e+03, 6.455984e-02
1.133078e+03, 8.422420e-02
1.134211e+03, 5.605716e-02
1.135345e+03, 4.411945e-02
1.136480e+03, 8.480441e-02
1.137617e+03, 9.317985e-02
1.138754e+03, 8.547450e-02
1.139893e+03, 5.072910e-02
1.141033e+03, 1.119624e-01
1.142174e+03, 1.310101e-01
1.143316e+03, 8.520368e-02
1.144460e+03, 7.136688e-02
1.145604e+03, 8.856365e-02
1.146750e+03, 9.396131e-02
1.147896e+03, 1.209491e-01
1.149044e+03, 7.991435e-02
1.150193e+03, 9.693423e-02
1.151344e+03, 8.584955e-02
1.152495e+03, 1.244527e-01
1.153647e+03, 1.255387e-01
1.154801e+03, 1.055177e-01
1.155956e+03, 1.182812e-01
1.157112e+03, 1.731398e-01
1.158269e+03, 1.414387e-01
1.159427e+03, 8.601675e-02
1.160587e+03, 1.874425e-01
1.161747e+03, 5.699293e-02
1.162909e+03, 1.338018e-01
1.164072e+03, 1.094672e-01
1.165236e+03, 9.167874e-02
1.166401e+03, 5.408151e-02
1.167568e+03, 1.002916e-01
1.168735e+03, 1.584674e-01
1.169904e+03, 9.462317e-02
1.171074e+03, 1.117278e-01
1.172245e+03, 1.109639e-01
1.173417e+03, 1.607075e-01
1.174590e+03, 1.505781e-01
1.175765e+03, 1.141252e-01
1.176941e+03, 2.153985e-01
1.178118e+03, 2.516257e-01
1.179296e+03, 2.023939e-01
1.180475e+03, 1.731649e-01
1.181656e+03, 2.165405e-01
1.182837e+03, 2.008400e-01
1.184020e+03, 2.241679e-01
1.185204e+03, 1.729610e-01
1.186389e+03, 1.828156e-01
1.187576e+03, 2.361718e-01
1.188763e+03, 2.471214e-01
1.189952e+03, 2.765340e-01
1.191142e+03, 2.385984e-01
1.192333e+03, 1.854558e-01
1.193526e+03, 1.950910e-01
1.194719e+03, 3.957150e-01
1.195914e+03, 6.774662e-01
1.197110e+03, 1.498005e+00
1.198307e+03, 6.732004e-01
1.199505e+03, 9.350654e-01
1.200705e+03, 9.743038e-01
1.201905e+03, 6.650963e-01
1.203107e+03, 9.387740e-01
1.204310e+03, 7.350048e-01
1.205515e+03, 6.739111e-01
1.206720e+03, 7.840393e-01
1.207927e+03, 5.388361e-01
1.209135e+03, 4.710177e-01
1.210344e+03, 1.808273e-01
1.211554e+03, 1.815608e-01
1.212766e+03, 9.403953e-02
1.213979e+03, 3.435131e-02
1.215193e+03, 5.161149e-03
1.216408e+03, 8.705011e-03
1.217624e+03, 5.192216e-02
1.218842e+03, 1.269399e-01
1.220061e+03, 2.550434e-01
1.221281e+03, 5.008058e-01
1.222502e+03, 7.295901e-01
1.223724e+03, 1.177541e+00
1.224948e+03, 1.144662e+00
1.226173e+03, 2.281101e+00
1.227399e+03, 1.532238e+00
1.228627e+03, 2.422670e+00
1.229855e+03, 1.941798e+00
1.231085e+03, 3.436552e+00
1.232316e+03, 4.845782e+00
1.233549e+03, 4.283409e+00
1.234782e+03, 5.391315e+00
1.236017e+03, 4.021584e+00
1.237253e+03, 4.402110e+00
1.238490e+03, 6.198789e+00
1.239729e+03, 8.591845e+00
1.240968e+03, 5.487716e+00
1.242209e+03, 5.950943e+00
1.243452e+03, 8.044722e+00
1.244695e+03, 8.708679e+00
1.245940e+03, 5.697059e+00
1.247186e+03, 8.788860e+00
1.248433e+03, 1.058654e+01
1.249681e+03, 1.082930e+01
1.250931e+03, 9.646086e+00
1.252182e+03, 1.146306e+01
1.253434e+03, 1.127064e+01
1.254688e+03, 1.512981e+01
1.255942e+03, 9.221449e+00
1.257198e+03, 8.186367e+00
1.258455e+03, 8.433325e+00
1.259714e+03, 1.373507e+01
1.260974e+03, 1.148560e+01
1.262235e+03, 1.357833e+01
1.263497e+03, 1.273486e+01
1.264760e+03, 1.456954e+01
1.266025e+03, 1.420692e+01
1.267291e+03, 1.444744e+01
1.268558e+03, 1.163108e+01
1.269827e+03, 2.141280e+01
1.271097e+03, 1.626826e+01
1.272368e+03, 1.653431e+01
1.273640e+03, 2.352188e+01
1.274914e+03, 1.551424e+01
1.276189e+03, 1.724542e+01
1.277465e+03, 1.998098e+01
1.278742e+03, 1.753529e+01
1.280021e+03, 1.546968e+01
1.281301e+03, 2.710611e+01
1.282582e+03, 1.783093e+01
1.283865e+03, 2.854040e+01
1.285149e+03, 3.124049e+01
1.286434e+03, 1.891640e+01
1.287720e+03, 2.854914e+01
1.289008e+03, 3.419875e+01
1.290297e+03, 3.393965e+01
1.291588e+03, 3.807864e+01
1.292879e+03, 2.682998e+01
1.294172e+03, 4.313729e+01
1.295466e+03, 4.370794e+01
1.296762e+03, 4.678502e+01
1.298058e+03, 4.254375e+01
1.299356e+03, 4.396576e+01
1.300656e+03, 5.862116e+01
1.301956e+03, 6.237150e+01
1.303258e+03, 7.545159e+01
1.304562e+03, 6.254142e+01
1.305866e+03, 6.883587e+01
1.307172e+03, 7.258800e+01
1.308479e+03, 8.521211e+01
1.309788e+03, 8.472070e+01
1.311098e+03, 6.501609e+01
1.312409e+03, 5.697308e+01
1.313721e+03, 6.482837e+01
1.315035e+03, 5.292364e+01
1.316350e+03, 6.347091e+01
1.317666e+03, 7.698038e+01
1.318984e+03, 6.436559e+01
1.320303e+03, 7.226132e+01
1.321623e+03, 7.404256e+01
1.322945e+03, 6.165763e+01
1.324268e+03, 6.710048e+01
1.325592e+03, 7.554624e+01
1.326918e+03, 7.203700e+01
1.328244e+03, 8.400973e+01
1.329573e+03, 8.979654e+01
1.330902e+03, 1.152686e+02
1.332233e+03, 1.099310e+02
1.333565e+03, 1.061065e+02
1.334899e+03, 1.169116e+02
1.336234e+03, 1.131831e+02
1.337570e+03, 1.230778e+02
1.338908e+03, 1.238299e+02
1.340247e+03, 1.326331e+02
1.341587e+03, 1.533462e+02
1.342928e+03, 1.126065e+02
1.344271e+03, 1.605204e+02
1.345616e+03, 1.172100e+02
1.346961e+03, 1.270196e+02
1.348308e+03, 1.666142e+02
1.349656e+03, 1.487091e+02
1.351006e+03, 1.673033e+02
1.352357e+03, 2.060315e+02
1.353709e+03, 2.230568e+02
1.355063e+03, 2.385849e+02
1.356418e+03, 2.069180e+02
1.357775e+03, 2.328525e+02
1.359132e+03, 2.474872e+02
1.360492e+03, 2.407413e+02
1.361852e+03, 2.441350e+02
1.363214e+03, 2.223494e+02
1.364577e+03, 2.679964e+02
1.365942e+03, 2.113412e+02
1.367308e+03, 2.487265e+02
1.368675e+03, 2.161195e+02
1.370044e+03, 2.541168e+02
1.371414e+03, 2.347155e+02
1.372785e+03, 2.632155e+02
1.374158e+03, 2.409895e+02
1.375532e+03, 3.001056e+02
1.376908e+03, 2.755907e+02
1.378284e+03, 3.504789e+02
1.379663e+03, 3.328623e+02
1.381042e+03, 3.837050e+02
1.382423e+03, 4.089704e+02
1.383806e+03, 4.089095e+02
1.385190e+03, 4.322442e+02
1.386575e+03, 4.914229e+02
1.387961e+03, 5.245799e+02
1.389349e+03, 5.897542e+02
1.390739e+03, 5.791407e+02
1.392130e+03, 6.607644e+02
1.393522e+03, 6.620956e+02
1.394915e+03, 7.409122e+02
1.396310e+03, 8.034716e+02
1.397706e+03, 8.651469e+02
1.399104e+03, 9.326637e+02
1.400503e+03, 1.046915e+03
1.401904e+03, 1.131508e+03
1.403306e+03, 1.090900e+03
1.404709e+03, 1.220536e+03
1.406114e+03, 1.326010e+03
1.407520e+03, 1.538309e+03
1.408927e+03, 1.345587e+03
1.410336e+03, 1.337158e+03
1.411747e+03, 1.727682e+03
1.413158e+03, 1.417536e+03
1.414571e+03, 1.630157e+03
1.415986e+03, 1.552665e+03
1.417402e+03, 1.965906e+03
1.418819e+03, 1.787561e+03
1.420238e+03, 2.230808e+03
1.421658e+03, 2.048413e+03
1.423080e+03, 1.902411e+03
1.424503e+03, 1.961752e+03
1.425928e+03, 2.456748e+03
1.427354e+03, 2.170699e+03
1.428781e+03, 2.257705e+03
1.430210e+03, 2.458027e+03
1.431640e+03, 2.686086e+03
1.433072e+03, 2.400937e+03
1.434505e+03, 2.660347e+03
1.435939e+03, 2.849520e+03
1.437375e+03, 2.891852e+03
1.438813e+03, 3.213907e+03
1.440251e+03, 3.116204e+03
1.441692e+03, 3.204913e+03
1.443133e+03, 3.352768e+03
1.444576e+03, 3.566338e+03
1.446021e+03, 3.548334e+03
1.447467e+03, 3.250511e+03
1.448914e+03, 4.131928e+03
1.450363e+03, 4.366515e+03
1.451814e+03, 3.990400e+03
1.453266e+03, 4.347150e+03
1.454719e+03, 4.438551e+03
1.456174e+03, 4.712340e+03
1.457630e+03, 4.413333e+03
1.459087e+03, 4.538845e+03
1.460546e+03, 4.420269e+03
1.462007e+03, 5.268191e+03
1.463469e+03, 5.452247e+03
1.464932e+03, 5.440356e+03
1.466397e+03, 6.455416e+03
1.467864e+03, 6.134164e+03
1.469332e+03, 6.192891e+03
1.470801e+03, 6.921515e+03
1.472272e+03, 6.083874e+03
1.473744e+03, 5.963490e+03
1.475218e+03, 7.326151e+03
1.476693e+03, 7.530261e+03
1.478170e+03, 7.146975e+03
1.479648e+03, 7.536438e+03
1.481128e+03, 8.057517e+03
1.482609e+03, 8.429201e+03
1.484091e+03, 8.663143e+03
1.485575e+03, 9.584919e+03
1.487061e+03, 8.478101e+03
1.488548e+03, 9.068249e+03
1.490037e+03, 1.020625e+04
1.491527e+03, 1.015378e+04
1.493018e+03, 9.601891e+03
1.494511e+03, 9.694547e+03
1.496006e+03, 1.166616e+04
1.497502e+03, 1.140432e+04
1.498999e+03, 1.216173e+04
1.500498e+03, 1.277700e+04
1.501999e+03, 1.262776e+04
1.503501e+03, 1.304639e+04
1.505004e+03, 1.320361e+04
1.506509e+03, 1.489780e+04
1.508016e+03, 1.496865e+04
1.509524e+03, 1.535372e+04
1.511033e+03, 1.552346e+04
1.512544e+03, 1.535240e+04
1.514057e+03, 1.512699e+04
1.515571e+03, 1.477816e+04
1.517086e+03, 1.471800e+04
1.518603e+03, 1.477904e+04
1.520122e+03, 1.518733e+04
1.521642e+03, 1.513324e+04
1.523164e+03, 1.568180e+04
1.524687e+03, 1.554244e+04
1.526212e+03, 1.580502e+04
1.527738e+03, 1.630421e+04
1.529266e+03, 1.523124e+04
1.530795e+03, 1.639994e+04
1.532326e+03, 1.488281e+04
1.533858e+03, 1.458228e+04
1.535392e+03, 1.486158e+04
1.536927e+03, 1.558710e+04
1.538464e+03, 1.536416e+04
1.540003e+03, 1.548982e+04
1.541543e+03, 1.535925e+04
1.543084e+03, 1.784178e+04
1.544627e+03, 1.588937e+04
1.546172e+03, 1.649502e+04
1.547718e+03, 1.699682e+04
1.549266e+03, 1.555054e+04
1.550815e+03, 1.580926e+04
1.552366e+03, 1.497635e+04
1.553918e+03, 1.816472e+04
1.555472e+03, 1.799747e+04
1.557028e+03, 2.175767e+04
1.558585e+03, 2.253976e+04
1.560143e+03, 2.395686e+04
1.561703e+03, 2.573488e+04
1.563265e+03, 2.625432e+04
1.564828e+03, 2.935795e+04
1.566393e+03, 3.185291e+04
1.567960e+03, 3.059308e+04
1.569528e+03, 3.313765e+04
1.571097e+03, 3.375955e+04
1.572668e+03, 3.532378e+04
1.574241e+03, 3.452322e+04
1.575815e+03, 3.642187e+04
1.577391e+03, 3.934373e+04
1.578968e+03, 4.181971e+04
1.580547e+03, 3.491952e+04
1.582128e+03, 3.281015e+04
1.583710e+03, 3.803333e+04
1.585294e+03, 3.821597e+04
1.586879e+03, 3.718190e+04
1.588466e+03, 4.186118e+04
1.590054e+03, 4.140623e+04
1.591644e+03, 4.314131e+04
1.593236e+03, 3.510445e+04
1.594829e+03, 3.820616e+04
1.596424e+03, 3.957245e+04
1.598020e+03, 4.020042e+04
1.599618e+03, 4.205739e+04
1.601218e+03, 3.989769e+04
1.602819e+03, 4.077255e+04
1.604422e+03, 3.936838e+04
1.606027e+03, 3.858021e+04
1.607633e+03, 4.455114e+04
1.609240e+03, 3.796124e+04
1.610849e+03, 4.301940e+04
1.612460e+03, 3.800499e+04
1.614073e+03, 4.517491e+04
1.615687e+03, 4.563303e+04
1.617303e+03, 4.172638e+04
1.618920e+03, 5.250395e+04
1.620539e+03, 4.259919e+04
1.622159e+03, 4.397915e+04
1.623781e+03, 5.231844e+04
1.625405e+03, 4.926127e+04
1.627031e+03, 5.441960e+04
1.628658e+03, 6.161169e+04
1.630286e+03, 6.798333e+04
1.631917e+03, 7.502270e+04
1.633549e+03, 7.126460e+04
1.635182e+03, 6.196689e+04
1.636817e+03, 8.419354e+04
1.638454e+03, 6.877157e+04
1.640093e+03, 5.804542e+04
1.641733e+03, 7.353979e+04
1.643374e+03, 9.132855e+04
1.645018e+03, 9.463704e+04
1.646663e+03, 9.063341e+04
1.648309e+03, 1.082007e+05
1.649958e+03, 9.511997e+04
1.651608e+03, 8.644339e+04
1.653259e+03, 1.123811e+05
1.654913e+03, 1.036323e+05
1.656567e+03, 9.678756e+04
1.658224e+03, 1.145800e+05
1.659882e+03, 1.044839e+05
1.661542e+03, 1.261031e+05
1.663204e+03, 1.281926e+05
1.664867e+03, 1.541638e+05
1.666532e+03, 1.181622e+05
1.668198e+03, 1.153550e+05
1.669866e+03, 9.630624e+04
1.671536e+03, 1.234379e+05
1.673208e+03, 1.351374e+05
1.674881e+03, 1.466785e+05
1.676556e+03, 1.596758e+05
1.678233e+03, 1.630871e+05
1.679911e+03, 1.702486e+05
1.681591e+03, 1.464898e+05
1.683272e+03, 1.619953e+05
1.684956e+03, 1.861859e+05
1.686640e+03, 1.726725e+05
1.688327e+03, 1.935644e+05
1.690015e+03, 1.925967e+05
1.691705e+03, 2.261837e+05
1.693397e+03, 1.891559e+05
1.695091e+03, 2.314785e+05
1.696786e+03, 3.027240e+05
1.698482e+03, 2.053194e+05
1.700181e+03, 1.882232e+05
1.701881e+03, 2.074598e+05
1.703583e+03, 1.991311e+05
1.705287e+03, 2.481794e+05
1.706992e+03, 3.002328e+05
1.708699e+03, 2.709802e+05
1.710408e+03, 3.083549e+05
1.712118e+03, 3.205520e+05
1.713830e+03, 3.577423e+05
1.715544e+03, 3.043358e+05
1.717259e+03, 2.293097e+05
1.718977e+03, 2.878871e+05
1.720696e+03, 3.002658e+05
1.722416e+03, 3.022402e+05
1.724139e+03, 3.560429e+05
1.725863e+03, 3.871998e+05
1.727589e+03, 4.730207e+05
1.729316e+03, 4.721852e+05
1.731046e+03, 4.643931e+05
1.732777e+03, 5.173796e+05
1.734510e+03, 3.268286e+05
1.736244e+03, 3.994360e+05
1.737980e+03, 4.084710e+05
1.739718e+03, 3.903971e+05
1.741458e+03, 4.303583e+05
1.743199e+03, 4.874659e+05
1.744943e+03, 5.833974e+05
1.746688e+03, 6.166518e+05
1.748434e+03, 5.562244e+05
1.750183e+03, 5.303238e+05
1.751933e+03, 5.070902e+05
1.753685e+03, 4.503207e+05
1.755439e+03, 6.023285e+05
1.757194e+03, 5.760340e+05
1.758951e+03, 5.779612e+05
1.760710e+03, 6.217410e+05
1.762471e+03, 5.929438e+05
1.764233e+03, 6.565680e+05
1.765998e+03, 6.897288e+05
1.767764e+03, 9.341964e+05
1.769531e+03, 8.209081e+05
1.771301e+03, 6.397650e+05
1.773072e+03, 5.617116e+05
1.774845e+03, 7.141537e+05
1.776620e+03, 7.329174e+05
1.778397e+03, 8.413362e+05
1.780175e+03, 8.599700e+05
1.781955e+03, 1.012425e+06
1.783737e+03, 1.111775e+06
1.785521e+03, 1.078532e+06
1.787306e+03, 1.192876e+06
1.789094e+03, 1.077709e+06
1.790883e+03, 9.721120e+05
1.792674e+03, 8.345792e+05
1.794466e+03, 1.067272e+06
1.796261e+03, 1.213836e+06
1.798057e+03, 1.137563e+06
1.799855e+03, 1.199894e+06
1.801655e+03, 1.341968e+06
1.803457e+03, 1.474675e+06
1.805260e+03, 1.375026e+06
1.807065e+03, 1.399019e+06
1.808872e+03, 1.716405e+06
1.810681e+03, 1.444535e+06
1.812492e+03, 9.883344e+05
1.814304e+03, 1.226452e+06
1.816119e+03, 1.366624e+06
1.817935e+03, 1.542257e+06
1.819753e+03, 1.310121e+06
1.821573e+03, 1.485918e+06
1.823394e+03, 1.879179e+06
1.825218e+03, 1.857054e+06
1.827043e+03, 1.839439e+06
1.828870e+03, 1.971658e+06
1.830699e+03, 2.065051e+06
1.832529e+03, 1.484896e+06
1.834362e+03, 1.461719e+06
1.836196e+03, 1.616979e+06
1.838032e+03, 1.905717e+06
1.839871e+03, 1.831714e+06
1.841710e+03, 1.945072e+06
1.843552e+03, 2.315514e+06
1.845396e+03, 2.431820e+06
1.847241e+03, 2.604695e+06
1.849088e+03, 2.663545e+06
1.850937e+03, 2.362378e+06
1.852788e+03, 2.240838e+06
1.854641e+03, 1.817063e+06
1.856496e+03, 1.824529e+06
1.858352e+03, 2.243708e+06
1.860211e+03, 2.635640e+06
1.862071e+03, 2.672640e+06
1.863933e+03, 2.472324e+06
1.865797e+03, 2.736719e+06
1.867663e+03, 3.283759e+06
1.869530e+03, 3.176417e+06
1.871400e+03, 3.194306e+06
1.873271e+03, 2.911537e+06
1.875144e+03, 2.868273e+06
1.877020e+03, 2.984572e+06
1.878897e+03, 2.824241e+06
1.880776e+03, 3.104958e+06
1.882656e+03, 3.283546e+06
1.884539e+03, 3.883612e+06
1.886424e+03, 3.780263e+06
1.888310e+03, 4.068797e+06
1.890198e+03, 4.147642e+06
1.892088e+03, 4.883284e+06
1.893981e+03, 4.839138e+06
1.895875e+03, 4.528481e+06
1.897770e+03, 4.384877e+06
1.899668e+03, 3.849356e+06
1.901568e+03, 4.386026e+06
1.903469e+03, 5.249000e+06
1.905373e+03, 5.151901e+06
1.907278e+03, 5.545856e+06
1.909186e+03, 5.745044e+06
1.911095e+03, 6.257977e+06
1.913006e+03, 6.303069e+06
1.914919e+03, 6.477667e+06
1.916834e+03, 6.973233e+06
1.918751e+03, 6.221266e+06
1.920669e+03, 6.274094e+06
1.922590e+03, 6.086816e+06
1.924513e+03, 6.311365e+06
1.926437e+03, 7.040749e+06
1.928364e+03, 6.806728e+06
1.930292e+03, 7.402523e+06
1.932222e+03, 8.124568e+06
1.934154e+03, 7.791651e+06
1.936089e+03, 7.520738e+06
1.938025e+03, 8.576582e+06
1.939963e+03, 8.125067e+06
1.941903e+03, 9.585455e+06
1.943845e+03, 8.065902e+06
1.945788e+03, 7.909355e+06
1.947734e+03, 9.031192e+06
1.949682e+03, 8.731662e+06
1.951632e+03, 8.735405e+06
1.953583e+03, 1.099716e+07
1.955537e+03, 9.964274e+06
1.957492e+03, 1.106517e+07
1.959450e+03, 1.035104e+07
1.961409e+03, 1.080846e+07
1.963371e+03, 1.144263e+07
1.965334e+03, 1.198196e+07
1.967299e+03, 1.191256e+07
1.969267e+03, 1.125660e+07
1.971236e+03, 1.296012e+07
1.973207e+03, 1.208464e+07
1.975180e+03, 1.350945e+07
1.977156e+03, 1.339674e+07
1.979133e+03, 1.420978e+07
1.981112e+03, 1.470774e+07
1.983093e+03, 1.571078e+07
1.985076e+03, 1.660941e+07
1.987061e+03, 1.605813e+07
1.989048e+03, 1.610294e+07
1.991037e+03, 1.449291e+07
1.993028e+03, 1.553702e+07
1.995021e+03, 1.490877e+07
1.997016e+03, 1.565628e+07
1.999013e+03, 1.660355e+07
2.001012e+03, 1.691066e+07
2.003013e+03, 1.855475e+07
2.005016e+03, 1.815425e+07
2.007021e+03, 1.783939e+07
2.009028e+03, 1.987525e+07
2.011037e+03, 2.066351e+07
2.013048e+03, 2.200931e+07
2.015062e+03, 2.172381e+07
2.017077e+03, 2.060234e+07
2.019094e+03, 2.124799e+07
2.021113e+03, 2.132035e+07
2.023134e+03, 2.130797e+07
2.025157e+03, 2.284091e+07
2.027182e+03, 2.148495e+07
2.029209e+03, 2.510385e+07
2.031239e+03, 2.526229e+07
2.033270e+03, 2.628790e+07
2.035303e+03, 2.473474e+07
2.037338e+03, 2.698541e+07
2.039376e+03, 2.778626e+07
2.041415e+03, 2.737578e+07
2.043457e+03, 2.789005e+07
2.045500e+03, 2.745751e+07
2.047545e+03, 2.727632e+07
2.049593e+03, 2.971903e+07
2.051643e+03, 3.008092e+07
2.053694e+03, 3.070789e+07
2.055748e+03, 2.981799e+07
2.057804e+03, 3.419661e+07
2.059861e+03, 3.104720e+07
2.061921e+03, 3.268076e+07
2.063983e+03, 3.283850e+07
2.066047e+03, 3.141211e+07
2.068113e+03, 3.591555e+07
2.070181e+03, 3.355966e+07
2.072252e+03, 5.377013e+07
2.074324e+03, 4.879285e+07
2.076398e+03, 4.862830e+07
2.078475e+03, 4.169903e+07
2.080553e+03, 5.812571e+07
2.082634e+03, 6.035723e+07
2.084716e+03, 5.774353e+07
2.086801e+03, 6.059873e+07
2.088888e+03, 7.181771e+07
2.090977e+03, 8.026982e+07
2.093068e+03, 7.664031e+07
2.095161e+03, 5.681165e+07
2.097256e+03, 7.514083e+07
2.099353e+03, 7.833948e+07
2.101452e+03, 7.398497e+07
2.103554e+03, 7.535397e+07
2.105657e+03, 7.235425e+07
2.107763e+03, 7.497660e+07
2.109871e+03, 7.350212e+07
2.111981e+03, 9.501918e+07
2.114093e+03, 8.350662e+07
2.116207e+03, 7.242823e+07
2.118323e+03, 7.880718e+07
2.120441e+03, 9.463471e+07
2.122562e+03, 1.137982e+08
2.124684e+03, 9.343484e+07
2.126809e+03, 8.427612e+07
2.128936e+03, 8.721794e+07
2.131065e+03, 1.032600e+08
2.133196e+03, 1.014462e+08
2.135329e+03, 9.955898e+07
2.137464e+03, 1.069237e+08
2.139602e+03, 1.061643e+08
2.141741e+03, 7.664356e+07
2.143883e+03, 1.094978e+08
2.146027e+03, 1.155641e+08
2.148173e+03, 7.819771e+07
2.150321e+03, 8.803414e+07
2.152472e+03, 1.098724e+08
2.154624e+03, 1.197224e+08
2.156779e+03, 1.344101e+08
2.158935e+03, 1.136921e+08
2.161094e+03, 1.125386e+08
2.163255e+03, 1.009509e+08
2.165419e+03, 1.086339e+08
2.167584e+03, 1.126364e+08
2.169752e+03, 1.076545e+08
2.171921e+03, 1.366538e+08
2.174093e+03, 1.311277e+08
2.176268e+03, 1.859045e+08
2.178444e+03, 8.333694e+07
2.180622e+03, 1.153125e+08
2.182803e+03, 1.154756e+08
2.184986e+03, 1.269521e+08
2.187171e+03, 1.424578e+08
2.189358e+03, 1.705500e+08
2.191547e+03, 1.705655e+08
2.193739e+03, 1.703105e+08
2.195932e+03, 1.924911e+08
2.198128e+03, 1.813532e+08
2.200327e+03, 1.220369e+08
2.202527e+03, 1.827277e+08
2.204729e+03, 1.551077e+08
2.206934e+03, 2.434329e+08
2.209141e+03, 1.960806e+08
2.211350e+03, 1.911878e+08
2.213562e+03, 2.508939e+08
2.215775e+03, 1.877817e+08
2.217991e+03, 1.655434e+08
2.220209e+03, 1.461866e+08
2.222429e+03, 1.592592e+08
2.224651e+03, 2.225667e+08
2.226876e+03, 1.755725e+08
2.229103e+03, 2.765977e+08
2.231332e+03, 2.307948e+08
2.233563e+03, 3.313642e+08
2.235797e+03, 4.155380e+08
2.238033e+03, 2.009290e+08
2.240271e+03, 2.680887e+08
2.242511e+03, 2.733210e+08
2.244754e+03, 3.045665e+08
2.246998e+03, 3.578328e+08
2.249245e+03, 3.448088e+08
2.251495e+03, 4.146571e+08
2.253746e+03, 4.574706e+08
2.256000e+03, 3.856627e+08
2.258256e+03, 1.868719e+08
2.260514e+03, 1.675580e+08
2.262775e+03, 2.234079e+08
2.265037e+03, 2.553737e+08
2.267302e+03, 2.889260e+08
2.269570e+03, 2.896389e+08
2.271839e+03, 3.700965e+08
2.274111e+03, 4.882518e+08
2.276385e+03, 3.827793e+08
2.278662e+03, 4.382870e+08
2.280940e+03, 3.899113e+08
2.283221e+03, 4.116713e+08
2.285504e+03, 4.109182e+08
2.287790e+03, 4.044014e+08
2.290078e+03, 4.463658e+08
2.292368e+03, 5.881830e+08
2.294660e+03, 5.335351e+08
2.296955e+03, 6.388581e+08
2.299252e+03, 4.494019e+08
2.301551e+03, 2.405948e+08
2.303853e+03, 2.929300e+08
2.306156e+03, 3.755343e+08
2.308463e+03, 4.788819e+08
2.310771e+03, 4.351353e+08
2.313082e+03, 5.442577e+08
2.315395e+03, 7.497446e+08
2.317710e+03, 9.728938e+08
2.320028e+03, 6.715941e+08
2.322348e+03, 5.250565e+08
2.324670e+03, 6.118490e+08
2.326995e+03, 6.049212e+08
2.329322e+03, 6.546198e+08
2.331651e+03, 9.648142e+08
2.333983e+03, 9.235224e+08
2.336317e+03, 8.408514e+08
2.338653e+03, 8.987260e+08
2.340992e+03, 1.145092e+09
2.343333e+03, 7.355697e+08
2.345676e+03, 3.960955e+08
2.348022e+03, 4.322703e+08
2.350370e+03, 5.681599e+08
2.352720e+03, 5.467738e+08
2.355073e+03, 5.671098e+08
2.357428e+03, 7.028177e+08
2.359786e+03, 8.662975e+08
2.362145e+03, 8.642801e+08
2.364508e+03, 1.036586e+09
2.366872e+03, 4.588686e+08
2.369239e+03, 6.426552e+08
2.371608e+03, 7.419433e+08
2.373980e+03, 6.439488e+08
2.376354e+03, 9.166317e+08
2.378730e+03, 1.020012e+09
2.381109e+03, 1.421046e+09
2.383490e+03, 1.345359e+09
2.385873e+03, 1.163896e+09
2.388259e+03, 1.103665e+09
2.390648e+03, 9.734847e+08
2.393038e+03, 1.003822e+09
2.395431e+03, 1.203412e+09
2.397827e+03, 1.416258e+09
2.400225e+03, 1.500809e+09
2.402625e+03, 1.893335e+09
2.405027e+03, 2.432663e+09
2.407432e+03, 2.048784e+09
2.409840e+03, 2.367573e+09
2.412250e+03, 1.634690e+09
2.414662e+03, 8.779026e+08
2.417077e+03, 1.066716e+09
2.419494e+03, 1.105689e+09
2.421913e+03, 1.230678e+09
2.424335e+03, 1.382542e+09
2.426759e+03, 1.810293e+09
2.429186e+03, 3.153867e+09
2.431615e+03, 2.750369e+09
2.434047e+03, 1.942695e+09
2.436481e+03, 1.929611e+09
2.438918e+03, 2.500495e+09
2.441356e+03, 2.428470e+09
2.443798e+03, 2.547914e+09
2.446242e+03, 3.013194e+09
2.448688e+03, 3.797548e+09
2.451137e+03, 3.506689e+09
2.453588e+03, 3.924321e+09
2.456041e+03, 4.802256e+09
2.458497e+03, 2.450566e+09
2.460956e+03, 1.815863e+09
2.463417e+03, 1.663594e+09
2.465880e+03, 2.630947e+09
2.468346e+03, 3.514820e+09
2.470814e+03, 3.258935e+09
2.473285e+03, 2.526892e+09
2.475758e+03, 4.270975e+09
2.478234e+03, 4.381390e+09
2.480712e+03, 2.712574e+09
2.483193e+03, 1.736667e+09
2.485676e+03, 1.989778e+09
2.488162e+03, 1.196467e+09
2.490650e+03, 1.276507e+09
2.493141e+03, 2.016945e+09
2.495634e+03, 2.587070e+09
2.498130e+03, 3.094584e+09
2.500628e+03, 2.930072e+09
2.503128e+03, 3.821987e+09
2.505632e+03, 3.927796e+09
2.508137e+03, 3.473541e+09
2.510645e+03, 2.187578e+09
2.513156e+03, 2.885561e+09
2.515669e+03, 3.143337e+09
2.518185e+03, 2.996378e+09
2.520703e+03, 3.745080e+09
2.523224e+03, 2.568438e+09
2.525747e+03, 4.433396e+09
2.528273e+03, 3.312773e+09
2.530801e+03, 3.958224e+09
2.533332e+03, 6.546604e+09
2.535865e+03, 6.501439e+09
2.538401e+03, 9.183130e+09
2.540939e+03, 7.001377e+09
2.543480e+03, 8.245383e+09
2.546024e+03, 5.834826e+09
2.548570e+03, 1.075506e+10
2.551118e+03, 8.474970e+09
2.553669e+03, 1.291583e+10
2.556223e+03, 9.121405e+09
2.558779e+03, 7.077099e+09
2.561338e+03, 8.101571e+09
2.563899e+03, 5.155126e+09
2.566463e+03, 4.330212e+09
2.569030e+03, 6.132029e+09
2.571599e+03, 8.225655e+09
2.574170e+03, 8.533262e+09
2.576745e+03, 6.926074e+09
2.579321e+03, 8.454737e+09
2.581901e+03, 7.395561e+09
2.584483e+03, 7.390471e+09
2.587067e+03, 6.508056e+09
2.589654e+03, 4.971452e+09
2.592244e+03, 6.681656e+09
2.594836e+03, 7.547453e+09
2.597431e+03, 1.235862e+10
2.600028e+03, 9.276671e+09
2.602628e+03, 1.213961e+10
2.605231e+03, 1.458848e+10
2.607836e+03, 9.899877e+09
2.610444e+03, 1.128791e+10
2.613054e+03, 9.263523e+09
2.615667e+03, 1.129385e+10
2.618283e+03, 1.203957e+10
2.620901e+03, 1.451321e+10
2.623522e+03, 1.452778e+10
2.626146e+03, 2.020387e+10
2.628772e+03, 1.854924e+10
2.631401e+03, 2.288942e+10
2.634032e+03, 2.355395e+10
2.636666e+03, 2.678902e+10
2.639303e+03, 3.785055e+10
2.641942e+03, 2.588396e+10
2.644584e+03, 1.906543e+10
2.647229e+03, 1.423221e+10
2.649876e+03, 2.160168e+10
2.652526e+03, 1.971090e+10
2.655178e+03, 3.370782e+10
2.657834e+03, 2.959640e+10
2.660491e+03, 2.260642e+10
2.663152e+03, 2.830747e+10
2.665815e+03, 2.113955e+10
2.668481e+03, 2.045552e+10
2.671149e+03, 1.526226e+10
2.673820e+03, 2.337854e+10
2.676494e+03, 2.855490e+10
2.679171e+03, 2.612412e+10
2.681850e+03, 2.514956e+10
2.684532e+03, 3.251964e+10
2.687216e+03, 3.206828e+10
2.689904e+03, 2.240487e+10
2.692593e+03, 2.014477e+10
2.695286e+03, 1.797339e+10
2.697981e+03, 2.049989e+10
2.700679e+03, 2.958918e+10
2.703380e+03, 2.974846e+10
2.706083e+03, 4.174198e+10
2.708789e+03, 3.735699e+10
2.711498e+03, 3.751905e+10
2.714210e+03, 3.110672e+10
2.716924e+03, 2.747330e+10
2.719641e+03, 1.236233e+10
2.722360e+03, 1.525888e+10
2.725083e+03, 2.099567e+10
2.727808e+03, 3.054394e+10
2.730536e+03, 3.038210e+10
2.733266e+03, 2.646716e+10
2.736000e+03, 2.390023e+10
2.738736e+03, 2.581773e+10
2.741474e+03, 3.526262e+10
2.744216e+03, 1.899527e+10
2.746960e+03, 4.124958e+10
2.749707e+03, 3.172587e+10
2.752457e+03, 3.927683e+10
2.755209e+03, 3.577442e+10
2.757964e+03, 3.104744e+10
2.760722e+03, 4.704661e+10
2.763483e+03, 4.531799e+10
2.766246e+03, 7.180960e+10
2.769013e+03, 5.084787e+10
2.771782e+03, 5.877746e+10
2.774554e+03, 6.679150e+10
2.777328e+03, 7.114540e+10
2.780105e+03, 3.784624e+10
2.782886e+03, 4.105232e+10
2.785668e+03, 6.153102e+10
2.788454e+03, 4.673338e+10
2.791243e+03, 7.522027e+10
2.794034e+03, 7.266227e+10
2.796828e+03, 5.216399e+10
2.799625e+03, 4.749273e+10
2.802424e+03, 5.062754e+10
2.805227e+03, 7.769965e+10
2.808032e+03, 5.111217e+10
2.810840e+03, 7.616608e+10
2.813651e+03, 7.120235e+10
2.816464e+03, 9.626748e+10
2.819281e+03, 8.720872e+10
2.822100e+03, 6.415899e+10
2.824922e+03, 7.344342e+10
2.827747e+03, 6.094962e+10
2.830575e+03, 7.583320e+10
2.833406e+03, 5.801269e+10
2.836239e+03, 5.441736e+10
2.839075e+03, 5.676510e+10
2.841914e+03, 5.296198e+10
2.844756e+03, 4.076523e+10
2.847601e+03, 3.094018e+10
2.850448e+03, 2.057964e+10
2.853299e+03, 9.980459e+09
2.856152e+03, 2.609028e+10
2.859008e+03, 3.907037e+10
2.861867e+03, 5.319492e+10
2.864729e+03, 6.048949e+10
2.867594e+03, 7.205017e+10
2.870462e+03, 8.084366e+10
2.873332e+03, 7.420042e+10
2.876205e+03, 7.720287e+10
2.879082e+03, 9.571266e+10
2.881961e+03, 1.026153e+11
2.884843e+03, 1.448609e+11
2.887727e+03, 1.612178e+11
2.890615e+03, 1.762223e+11
2.893506e+03, 1.727968e+11
2.896399e+03, 1.601802e+11
2.899296e+03, 1.639226e+11
2.902195e+03, 1.508739e+11
2.905097e+03, 1.965815e+11
2.908002e+03, 2.175764e+11
2.910910e+03, 1.866018e+11
2.913821e+03, 1.724776e+11
2.916735e+03, 2.705676e+11
2.919652e+03, 2.401747e+11
2.922571e+03, 2.557099e+11
2.925494e+03, 2.396235e+11
2.928420e+03, 1.234283e+11
2.931348e+03, 1.745107e+11
2.934279e+03, 2.260424e+11
2.937214e+03, 1.024698e+11
2.940151e+03, 2.088223e+11
2.943091e+03, 1.249593e+11
2.946034e+03, 1.732699e+11
2.948980e+03, 1.052926e+11
2.951929e+03, 2.441971e+11
2.954881e+03, 1.184320e+11
2.957836e+03, 1.099360e+11
2.960794e+03, 2.631582e+11
2.963754e+03, 2.324004e+11
2.966718e+03, 7.514693e+10
2.969685e+03, 9.244558e+10
2.972655e+03, 9.666932e+10
2.975627e+03, 1.344486e+11
2.978603e+03, 2.488456e+11
2.981581e+03, 1.737268e+11
2.984563e+03, 9.090151e+10
2.987548e+03, 1.651687e+11
2.990535e+03, 2.776590e+11
2.993526e+03, 1.560878e+11
2.996519e+03, 1.101950e+11
2.999516e+03, 1.502634e+11
3.002515e+03, 7.585560e+10
3.005518e+03, 1.656156e+11
3.008523e+03, 8.796519e+10
3.011532e+03, 2.122339e+11
3.014543e+03, 2.232746e+11
3.017558e+03, 1.710487e+11
3.020575e+03, 6.024170e+10
3.023596e+03, 1.094426e+11
3.026620e+03, 1.123920e+11
3.029646e+03, 2.940580e+11
3.032676e+03, 3.435286e+11
3.035709e+03, 3.368189e+11
3.038744e+03, 1.560453e+11
3.041783e+03, 2.494687e+11
3.044825e+03, 2.945263e+11
3.047870e+03, 1.652735e+11
3.050918e+03, 2.228032e+11
3.053968e+03, 3.066535e+11
3.057022e+03, 2.488085e+11
3.060079e+03, 1.453700e+11
3.063140e+03, 4.180864e+11
3.066203e+03, 5.108095e+11
3.069269e+03, 5.124399e+11
3.072338e+03, 6.287642e+11
3.075410e+03, 4.521267e+11
3.078486e+03, 5.619427e+11
3.081564e+03, 2.864852e+11
3.084646e+03, 2.660474e+11
3.087731e+03, 5.466435e+11
3.090818e+03, 3.896016e+11
3.093909e+03, 1.503377e+11
3.097003e+03, 4.034819e+11
3.100100e+03, 3.842372e+11
3.103200e+03, 3.636767e+11
3.106303e+03, 7.638224e+11
3.109410e+03, 9.298367e+11
3.112519e+03, 8.838375e+11
3.115632e+03, 8.569486e+11
3.118747e+03, 8.164496e+11
3.121866e+03, 8.929772e+11
3.124988e+03, 1.081030e+12
3.128113e+03, 1.189894e+12
3.131241e+03, 8.049285e+11
3.134372e+03, 5.946886e+11
3.137507e+03, 1.059774e+12
3.140644e+03, 1.122131e+12
3.143785e+03, 1.155582e+12
3.146928e+03, 1.081151e+12
3.150075e+03, 1.297524e+12
3.153225e+03, 1.148716e+12
3.156379e+03, 1.385039e+12
3.159535e+03, 9.392080e+11
3.162695e+03, 9.677387e+11
3.165857e+03, 1.213022e+12
3.169023e+03, 1.372386e+12
3.172192e+03, 1.366584e+12
3.175364e+03, 1.758998e+12
3.178540e+03, 1.648804e+12
3.181718e+03, 1.048979e+12
3.184900e+03, 6.119515e+11
3.188085e+03, 1.090212e+12
3.191273e+03, 9.388735e+11
3.194464e+03, 8.060169e+11
3.197659e+03, 1.042940e+12
3.200856e+03, 8.434973e+11
3.204057e+03, 1.558082e+12
3.207261e+03, 1.672473e+12
3.210469e+03, 1.451423e+12
3.213679e+03, 1.077836e+12
3.216893e+03, 1.057687e+12
3.220110e+03, 1.460514e+12
3.223330e+03, 1.154926e+12
3.226553e+03, 9.308797e+11
3.229780e+03, 1.142944e+12
3.233009e+03, 1.275661e+12
3.236242e+03, 9.399264e+11
3.239479e+03, 1.727213e+12
3.242718e+03, 1.484117e+12
3.245961e+03, 1.363251e+12
3.249207e+03, 1.116029e+12
3.252456e+03, 1.765573e+12
3.255708e+03, 2.033144e+12
3.258964e+03, 2.271654e+12
3.262223e+03, 2.391581e+12
3.265485e+03, 1.766660e+12
3.268751e+03, 2.710571e+12
3.272020e+03, 1.689267e+12
3.275292e+03, 1.654250e+12
3.278567e+03, 2.549114e+12
3.281845e+03, 2.495943e+12
3.285127e+03, 2.077246e+12
3.288412e+03, 2.036896e+12
3.291701e+03, 2.713539e+12
3.294993e+03, 3.064991e+12
3.298288e+03, 2.862366e+12
3.301586e+03, 2.450703e+12
3.304887e+03, 1.711821e+12
3.308192e+03, 1.844081e+12
3.311500e+03, 2.392760e+12
3.314812e+03, 2.090108e+12
3.318127e+03, 2.110488e+12
3.321445e+03, 2.375748e+12
3.324766e+03, 2.105650e+12
3.328091e+03, 3.116299e+12
3.331419e+03, 2.588685e+12
3.334751e+03, 2.006523e+12
3.338085e+03, 2.202604e+12
3.341423e+03, 2.068667e+12
3.344765e+03, 2.132451e+12
3.348110e+03, 2.884514e+12
3.351458e+03, 1.262880e+12
3.354809e+03, 2.041256e+12
3.358164e+03, 2.222622e+12
3.361522e+03, 6.903376e+11
3.364884e+03, 2.437495e+12
3.368249e+03, 1.648212e+12
3.371617e+03, 7.298356e+11
3.374988e+03, 1.693576e+12
3.378363e+03, 2.035514e+12
3.381742e+03, 1.376357e+12
3.385124e+03, 2.241285e+12
3.388509e+03, 2.171871e+12
3.391897e+03, 1.606891e+12
3.395289e+03, 1.751171e+12
3.398684e+03, 2.615114e+12
3.402083e+03, 2.771298e+12
3.405485e+03, 2.165751e+12
3.408891e+03, 2.106757e+12
3.412300e+03, 1.878748e+12
3.415712e+03, 7.525369e+11
3.419128e+03, 2.187166e+12
3.422547e+03, 2.743603e+12
3.425969e+03, 1.894532e+12
3.429395e+03, 2.633469e+12
3.432825e+03, 1.853671e+12
3.436257e+03, 1.648771e+12
3.439694e+03, 8.580327e+11
3.443133e+03, 4.678397e+11
3.446576e+03, 8.244536e+11
3.450023e+03, 2.137161e+12
3.453473e+03, 1.436568e+12
3.456927e+03, 2.485707e+12
3.460383e+03, 1.640534e+12
3.463844e+03, 1.671822e+12
3.467308e+03, 1.113293e+12
3.470775e+03, 2.514292e+12
3.474246e+03, 1.753168e+12
3.477720e+03, 9.295699e+11
3.481198e+03, 3.157753e+12
3.484679e+03, 2.770001e+12
3.488164e+03, 2.714811e+12
3.491652e+03, 9.191101e+11
3.495143e+03, 1.648489e+12
3.498639e+03, 1.521804e+12
3.502137e+03, 2.545682e+12
3.505639e+03, 4.246619e+12
3.509145e+03, 3.712941e+12
3.512654e+03, 2.167774e+12
3.516167e+03, 1.412935e+12
3.519683e+03, 2.977078e+12
3.523203e+03, 1.606565e+12
3.526726e+03, 8.545585e+11
3.530253e+03, 2.797881e+12
3.533783e+03, 3.673948e+12
3.537317e+03, 4.341970e+12
3.540854e+03, 4.848849e+12
3.544395e+03, 5.152078e+12
3.547939e+03, 3.818049e+12
3.551487e+03, 4.387458e+12
3.555039e+03, 3.325284e+12
3.558594e+03, 2.795457e+12
3.562152e+03, 3.480933e+12
3.565714e+03, 1.728187e+12
3.569280e+03, 1.597148e+12
3.572849e+03, 1.650818e+12
3.576422e+03, 1.897790e+12
3.579999e+03, 7.570555e+11
3.583579e+03, 1.284338e+12
3.587162e+03, 1.145583e+12
3.590749e+03, 2.445542e+12
3.594340e+03, 1.079458e+12
3.597934e+03, 2.507414e+12
3.601532e+03, 3.638662e+12
3.605134e+03, 1.486319e+12
3.608739e+03, 1.359038e+12
3.612348e+03, 2.419758e+12
3.615960e+03, 3.716307e+12
3.619576e+03, 1.536194e+12
3.623196e+03, 3.086718e+12
3.626819e+03, 4.127519e+12
3.630446e+03, 2.892108e+12
3.634076e+03, 2.379273e+12
3.637710e+03, 3.042967e+12
3.641348e+03, 4.646226e+12
3.644989e+03, 2.081998e+12
3.648634e+03, 1.418136e+12
3.652283e+03, 3.151725e+12
3.655935e+03, 3.784659e+12
3.659591e+03, 5.918807e+12
3.663251e+03, 5.946372e+12
3.666914e+03, 6.591424e+12
3.670581e+03, 4.921668e+12
3.674251e+03, 5.265900e+12
3.677926e+03, 4.353918e+12
3.681604e+03, 2.238337e+12
3.685285e+03, 3.902036e+12
3.688971e+03, 2.999493e+12
3.692660e+03, 5.798775e+12
3.696352e+03, 5.535630e+12
3.700049e+03, 6.287922e+12
3.703749e+03, 3.702073e+12
3.707452e+03, 1.491448e+12
3.711160e+03, 2.823180e+12
3.714871e+03, 4.006632e+12
3.718586e+03, 1.707343e+12
3.722304e+03, 7.156628e+11
3.726027e+03, 2.523555e+12
3.729753e+03, 2.139341e+12
3.733482e+03, 1.562111e+12
3.737216e+03, 7.151365e+11
3.740953e+03, 1.913967e+12
3.744694e+03, 1.573765e+12
3.748439e+03, 8.465756e+11
3.752187e+03, 1.966108e+12
3.755939e+03, 3.692398e+12
3.759695e+03, 2.267897e+12
3.763455e+03, 3.149500e+12
3.767219e+03, 2.661228e+12
3.770986e+03, 5.550296e+12
3.774757e+03, 6.927551e+12
3.778532e+03, 6.544115e+12
3.782310e+03, 7.864712e+12
3.786092e+03, 5.320749e+12
3.789878e+03, 3.476649e+12
3.793668e+03, 5.581292e+12
3.797462e+03, 4.038111e+12
3.801259e+03, 3.783215e+12
3.805061e+03, 7.239719e+12
3.808866e+03, 5.591190e+12
3.812675e+03, 5.389937e+12
3.816487e+03, 3.109965e+12
3.820304e+03, 2.306507e+12
3.824124e+03, 1.874762e+12
3.827948e+03, 1.772310e+12
3.831776e+03, 3.175895e+12
3.835608e+03, 2.890619e+12
3.839444e+03, 3.143725e+12
3.843283e+03, 3.857315e+12
3.847126e+03, 5.757479e+12
3.850973e+03, 4.030337e+12
3.854824e+03, 3.988048e+12
3.858679e+03, 1.397798e+12
3.862538e+03, 2.015193e+12
3.866400e+03, 3.756828e+12
3.870267e+03, 5.996841e+12
3.874137e+03, 4.234704e+12
3.878011e+03, 2.706859e+12
3.881889e+03, 4.342572e+12
3.885771e+03, 2.794965e+12
3.889657e+03, 3.149604e+12
3.893547e+03, 5.901355e+12
3.897440e+03, 3.358906e+12
3.901338e+03, 3.391903e+12
3.905239e+03, 4.629084e+12
3.909144e+03, 5.108995e+12
3.913053e+03, 7.837419e+12
3.916966e+03, 6.643728e+12
3.920883e+03, 3.364925e+12
3.924804e+03, 3.199324e+12
3.928729e+03, 2.988366e+12
3.932658e+03, 1.857409e+12
3.936590e+03, 2.588292e+12
3.940527e+03, 4.983016e+12
3.944467e+03, 2.025756e+12
3.948412e+03, 3.698305e+12
3.952360e+03, 6.291943e+12
3.956313e+03, 5.635356e+12
3.960269e+03, 2.805694e+12
3.964229e+03, 2.136782e+12
3.968194e+03, 2.554982e+12
3.972162e+03, 4.111623e+12
3.976134e+03, 6.684625e+12
3.980110e+03, 9.118023e+12
3.984090e+03, 7.192332e+12
3.988074e+03, 1.048884e+13
3.992062e+03, 8.312747e+12
3.996054e+03, 1.094045e+13
4.000050e+03, 7.839358e+12
4.004050e+03, 1.199024e+13
4.008055e+03, 9.190068e+12
4.012063e+03, 9.429208e+12
4.016075e+03, 1.323173e+13
4.020091e+03, 1.127504e+13
4.024111e+03, 9.737809e+12
4.028135e+03, 1.081236e+13
4.032163e+03, 4.320731e+12
4.036195e+03, 5.951894e+12
4.040231e+03, 1.227820e+13
4.044272e+03, 8.832405e+12
4.048316e+03, 5.998973e+12
4.052364e+03, 1.300786e+13
4.056417e+03, 1.224659e+13
4.060473e+03, 1.096797e+13
4.064533e+03, 6.940967e+12
4.068598e+03, 1.134954e+13
4.072667e+03, 8.290487e+12
4.076739e+03, 1.129450e+13
4.080816e+03, 1.178752e+13
4.084897e+03, 1.247148e+13
4.088982e+03, 1.650711e+13
4.093071e+03, 1.334917e+13
4.097164e+03, 9.963092e+12
4.101261e+03, 8.040982e+12
4.105362e+03, 1.055331e+13
4.109468e+03, 1.010651e+13
4.113577e+03, 9.517693e+12
4.117691e+03, 9.568560e+12
4.121808e+03, 9.856201e+12
4.125930e+03, 1.262827e+13
4.130056e+03, 9.905194e+12
4.134186e+03, 7.526816e+12
4.138320e+03, 1.253333e+13
4.142459e+03, 9.128652e+12
4.146601e+03, 8.963776e+12
4.150748e+03, 1.122659e+13
4.154898e+03, 1.108838e+13
4.159053e+03, 1.243758e+13
4.163212e+03, 1.395933e+13
4.167376e+03, 1.055202e+13
4.171543e+03, 1.014262e+13
4.175714e+03, 9.291471e+12
4.179890e+03, 1.199908e+13
4.184070e+03, 1.078245e+13
4.188254e+03, 9.776501e+12
4.192442e+03, 1.063632e+13
4.196635e+03, 1.052029e+13
4.200831e+03, 7.670842e+12
4.205032e+03, 7.700863e+12
4.209237e+03, 7.754892e+12
4.213447e+03, 6.578507e+12
4.217660e+03, 4.770910e+12
4.221878e+03, 3.418609e+12
4.226100e+03, 1.599196e+12
4.230326e+03, 1.907593e+12
4.234556e+03, 3.629086e+12
4.238791e+03, 5.485090e+12
4.243029e+03, 7.237677e+12
4.247272e+03, 8.660593e+12
4.251520e+03, 7.225016e+12
4.255771e+03, 4.620744e+12
4.260027e+03, 8.404886e+12
4.264287e+03, 1.149596e+13
4.268551e+03, 1.123757e+13
4.272820e+03, 6.951428e+12
4.277093e+03, 5.883429e+12
4.281370e+03, 1.102996e+13
4.285651e+03, 8.468396e+12
4.289937e+03, 5.934328e+12
4.294227e+03, 9.031977e+12
4.298521e+03, 9.902211e+12
4.302819e+03, 6.672081e+12
4.307122e+03, 8.094722e+12
4.311429e+03, 1.190207e+13
4.315741e+03, 1.312958e+13
4.320057e+03, 1.175617e+13
4.324377e+03, 1.313609e+13
4.328701e+03, 1.194757e+13
4.333030e+03, 1.668028e+13
4.337363e+03, 1.564374e+13
4.341700e+03, 1.439279e+13
4.346042e+03, 1.477178e+13
4.350388e+03, 1.724586e+13
4.354738e+03, 1.221751e+13
4.359093e+03, 1.561776e+13
4.363452e+03, 1.802748e+13
4.367815e+03, 1.830920e+13
4.372183e+03, 1.644729e+13
4.376555e+03, 1.311970e+13
4.380932e+03, 1.357344e+13
4.385313e+03, 8.173269e+12
4.389698e+03, 1.426317e+13
4.394088e+03, 1.626571e+13
4.398482e+03, 1.733649e+13
4.402881e+03, 1.504360e+13
4.407283e+03, 9.261187e+12
4.411691e+03, 1.617590e+13
4.416102e+03, 1.397265e+13
4.420518e+03, 1.875594e+13
4.424939e+03, 1.216611e+13
4.429364e+03, 1.235146e+13
4.433793e+03, 1.370668e+13
4.438227e+03, 1.157794e+13
4.442665e+03, 1.510621e+13
4.447108e+03, 1.748632e+13
4.451555e+03, 1.595275e+13
4.456007e+03, 8.116233e+12
4.460463e+03, 1.227273e+13
4.464923e+03, 1.408572e+13
4.469388e+03, 1.689697e+13
4.473857e+03, 1.825033e+13
4.478331e+03, 1.868190e+13
4.482810e+03, 1.588880e+13
4.487292e+03, 1.914523e+13
4.491780e+03, 1.767044e+13
4.496272e+03, 1.582658e+13
4.500768e+03, 1.995337e+13
4.505269e+03, 2.036740e+13
4.509774e+03, 1.853721e+13
4.514284e+03, 1.728994e+13
4.518798e+03, 1.826669e+13
4.523317e+03, 1.878882e+13
4.527840e+03, 1.456462e+13
4.532368e+03, 1.506494e+13
4.536900e+03, 1.270066e+13
4.541437e+03, 1.937042e+13
4.545979e+03, 1.793739e+13
4.550525e+03, 1.755270e+13
4.555075e+03, 1.594876e+13
4.559630e+03, 2.055452e+13
4.564190e+03, 2.135255e+13
4.568754e+03, 2.175387e+13
4.573323e+03, 1.959486e+13
4.577896e+03, 1.953800e+13
4.582474e+03, 1.673107e+13
4.587056e+03, 1.495469e+13
4.591643e+03, 1.656950e+13
4.596235e+03, 1.570849e+13
4.600831e+03, 1.692522e+13
4.605432e+03, 1.759919e+13
4.610038e+03, 1.746966e+13
4.614648e+03, 1.994528e+13
4.619262e+03, 1.821456e+13
4.623882e+03, 1.984519e+13
4.628505e+03, 1.573490e+13
4.633134e+03, 1.650367e+13
4.637767e+03, 1.645669e+13
4.642405e+03, 1.683592e+13
4.647047e+03, 1.575112e+13
4.651694e+03, 1.527998e+13
4.656346e+03, 1.687428e+13
4.661002e+03, 2.136085e+13
4.665663e+03, 1.967754e+13
4.670329e+03, 1.502976e+13
4.674999e+03, 1.640905e+13
4.679674e+03, 1.764352e+13
4.684354e+03, 1.513121e+13
4.689038e+03, 1.788464e+13
4.693727e+03, 1.847586e+13
4.698421e+03, 1.845381e+13
4.703120e+03, 1.914683e+13
4.707823e+03, 1.985390e+13
4.712530e+03, 1.791143e+13
4.717243e+03, 1.537451e+13
4.721960e+03, 1.669087e+13
4.726682e+03, 1.805209e+13
4.731409e+03, 1.758851e+13
4.736140e+03, 1.774266e+13
4.740876e+03, 1.768012e+13
4.745617e+03, 1.777500e+13
4.750363e+03, 1.931250e+13
4.755113e+03, 1.745979e+13
4.759868e+03, 1.538657e+13
4.764628e+03, 1.120730e+13
4.769393e+03, 1.123338e+13
4.774162e+03, 1.214484e+13
4.778936e+03, 1.265479e+13
4.783715e+03, 1.327504e+13
4.788499e+03, 1.291758e+13
4.793288e+03, 1.492811e+13
4.798081e+03, 1.716364e+13
4.802879e+03, 1.670898e+13
4.807682e+03, 1.321932e+13
4.812490e+03, 1.311314e+13
4.817302e+03, 1.452420e+13
4.822119e+03, 1.584784e+13
4.826941e+03, 1.515227e+13
4.831768e+03, 1.565033e+13
4.836600e+03, 1.752540e+13
4.841437e+03, 1.682783e+13
4.846278e+03, 1.915262e+13
4.851124e+03, 1.694704e+13
4.855976e+03, 1.768436e+13
4.860832e+03, 1.904515e+13
4.865692e+03, 1.956673e+13
4.870558e+03, 1.916375e+13
4.875429e+03, 1.899491e+13
4.880304e+03, 1.963609e+13
4.885184e+03, 2.079277e+13
4.890070e+03, 2.088231e+13
4.894960e+03, 2.151588e+13
4.899855e+03, 2.186716e+13
4.904754e+03, 2.155774e+13
4.909659e+03, 2.204968e+13
4.914569e+03, 2.272624e+13
4.919483e+03, 2.199478e+13
4.924403e+03, 2.317727e+13
4.929327e+03, 2.337005e+13
4.934257e+03, 2.526187e+13
4.939191e+03, 2.376809e+13
4.944130e+03, 2.378820e+13
4.949074e+03, 2.370320e+13
4.954023e+03, 2.394717e+13
4.958977e+03, 1.116371e+13
4.963936e+03, 1.240889e+13
4.968900e+03, 1.382595e+13
4.973869e+03, 1.462470e+13
4.978843e+03, 1.512775e+13
4.983822e+03, 1.447978e+13
4.988806e+03, 1.634126e+13
4.993794e+03, 1.572927e+13
4.998788e+03, 1.555874e+13
5.003787e+03, 1.271235e+13
5.008791e+03, 1.205707e+13
5.013800e+03, 1.277881e+13
5.018813e+03, 1.430026e+13
5.023832e+03, 1.303468e+13
5.028856e+03, 1.442411e+13
5.033885e+03, 1.792964e+13
5.038919e+03, 1.509961e+13
5.043958e+03, 1.381749e+13
5.049002e+03, 1.665257e+13
5.054051e+03, 1.653975e+13
5.059105e+03, 1.611503e+13
5.064164e+03, 1.513587e+13
5.069228e+03, 1.608239e+13
5.074297e+03, 1.754895e+13
5.079372e+03, 1.659865e+13
5.084451e+03, 1.733599e+13
5.089535e+03, 1.715079e+13
5.094625e+03, 1.725003e+13
5.099720e+03, 1.636941e+13
5.104819e+03, 1.822826e+13
5.109924e+03, 1.691608e+13
5.115034e+03, 2.086117e+13
5.120149e+03, 1.744015e+13
5.125269e+03, 1.743504e+13
5.130394e+03, 1.581138e+13
5.135525e+03, 2.179716e+13
5.140660e+03, 1.990929e+13
5.145801e+03, 1.679844e+13
5.150947e+03, 1.716273e+13
5.156098e+03, 1.585831e+13
5.161254e+03, 2.587974e+13
5.166415e+03, 1.921925e+13
5.171582e+03, 9.087520e+12
5.176753e+03, 1.097206e+13
5.181930e+03, 1.034920e+13
5.187112e+03, 1.400396e+13
5.192299e+03, 1.524748e+13
5.197491e+03, 1.755794e+13
5.202689e+03, 1.754212e+13
5.207891e+03, 1.019408e+13
5.213099e+03, 1.783461e+13
5.218312e+03, 2.450929e+13
5.223531e+03, 2.621922e+13
5.228754e+03, 2.241948e+13
5.233983e+03, 2.778276e+13
5.239217e+03, 2.848410e+13
5.244456e+03, 2.485414e+13
5.249701e+03, 2.321079e+13
5.254950e+03, 2.681367e+13
5.260205e+03, 2.814745e+13
5.265465e+03, 1.782928e+13
5.270731e+03, 1.780686e+13
5.276002e+03, 2.659699e+13
5.281278e+03, 2.935287e+13
5.286559e+03, 3.040546e+13
5.291846e+03, 3.209203e+13
5.297137e+03, 2.766213e+13
5.302435e+03, 2.938948e+13
5.307737e+03, 3.422633e+13
5.313045e+03, 3.097610e+13
5.318358e+03, 3.198845e+13
5.323676e+03, 2.999977e+13
5.329000e+03, 2.117831e+13
5.334329e+03, 3.038429e+13
5.339663e+03, 3.153460e+13
5.345003e+03, 2.836675e+13
5.350348e+03, 2.889754e+13
5.355698e+03, 3.498151e+13
5.361054e+03, 3.234788e+13
5.366415e+03, 3.018939e+13
5.371781e+03, 2.592399e+13
5.377153e+03, 3.291696e+13
5.382530e+03, 3.419355e+13
5.387913e+03, 3.473978e+13
5.393301e+03, 3.212071e+13
5.398694e+03, 2.764093e+13
5.404093e+03, 3.125200e+13
5.409497e+03, 2.552029e+13
5.414906e+03, 3.376404e+13
5.420321e+03, 3.527917e+13
5.425741e+03, 3.355760e+13
5.431167e+03, 2.974726e+13
5.436598e+03, 3.000923e+13
5.442035e+03, 3.585494e+13
5.447477e+03, 2.821113e+13
5.452924e+03, 2.147643e+13
5.458377e+03, 2.120064e+13
5.463836e+03, 2.424197e+13
5.469300e+03, 2.603108e+13
5.474769e+03, 2.646363e+13
5.480244e+03, 2.649422e+13
5.485724e+03, 2.831456e+13
5.491210e+03, 2.901444e+13
5.496701e+03, 2.727034e+13
5.502198e+03, 2.466257e+13
5.507700e+03, 2.570659e+13
5.513207e+03, 2.446161e+13
5.518721e+03, 2.767030e+13
5.524239e+03, 3.033749e+13
5.529764e+03, 3.037796e+13
5.535293e+03, 2.972444e+13
5.540829e+03, 3.201169e+13
5.546370e+03, 3.129517e+13
5.551916e+03, 3.221906e+13
5.557468e+03, 3.340759e+13
5.563025e+03, 3.336929e+13
5.568588e+03, 3.157439e+13
5.574157e+03, 3.252131e+13
5.579731e+03, 3.357295e+13
5.585311e+03, 3.123919e+13
5.590896e+03, 2.546510e+13
5.596487e+03, 2.792531e+13
5.602083e+03, 2.117440e+13
5.607686e+03, 2.743209e+13
5.613293e+03, 2.817538e+13
5.618907e+03, 2.605317e+13
5.624525e+03, 2.841253e+13
5.630150e+03, 2.747704e+13
5.635780e+03, 2.938943e+13
5.641416e+03, 2.864237e+13
5.647057e+03, 2.956891e+13
5.652704e+03, 3.226750e+13
5.658357e+03, 3.227419e+13
5.664015e+03, 2.863554e+13
5.669679e+03, 3.037406e+13
5.675349e+03, 3.081852e+13
5.681024e+03, 3.348093e+13
5.686705e+03, 3.149902e+13
5.692392e+03, 3.345030e+13
5.698085e+03, 3.358200e+13
5.703783e+03, 3.285951e+13
5.709486e+03, 3.323117e+13
5.715196e+03, 3.395680e+13
5.720911e+03, 3.680541e+13
5.726632e+03, 3.545427e+13
5.732359e+03, 3.726067e+13
5.738091e+03, 3.830101e+13
5.743829e+03, 3.873012e+13
5.749573e+03, 3.947151e+13
5.755323e+03, 3.946802e+13
5.761078e+03, 3.540683e+13
5.766839e+03, 3.436603e+13
5.772606e+03, 3.577995e+13
5.778378e+03, 3.661648e+13
5.784157e+03, 3.634575e+13
5.789941e+03, 3.688584e+13
5.795731e+03, 3.926357e+13
5.801527e+03, 3.929192e+13
5.807328e+03, 3.954449e+13
5.813135e+03, 3.561945e+13
5.818949e+03, 3.591010e+13
5.824768e+03, 3.728525e+13
5.830592e+03, 3.759494e+13
5.836423e+03, 3.795451e+13
5.842259e+03, 3.727808e+13
5.848102e+03, 3.596625e+13
5.853950e+03, 3.241953e+13
5.859804e+03, 2.990485e+13
5.865663e+03, 2.950630e+13
5.871529e+03, 2.876222e+13
5.877401e+03, 2.511823e+13
5.883278e+03, 2.138545e+13
5.889161e+03, 1.265759e+13
5.895050e+03, 1.102030e+13
5.900945e+03, 1.556893e+13
5.906846e+03, 2.192496e+13
5.912753e+03, 2.459809e+13
5.918666e+03, 2.591953e+13
5.924585e+03, 2.628374e+13
5.930509e+03, 2.747202e+13
5.936440e+03, 2.924518e+13
5.942376e+03, 2.982703e+13
5.948319e+03, 2.898714e+13
5.954267e+03, 2.908594e+13
5.960221e+03, 2.888952e+13
5.966181e+03, 3.021335e+13
5.972148e+03, 3.088637e+13
5.978120e+03, 3.071409e+13
5.984098e+03, 3.252680e+13
5.990082e+03, 3.395990e+13
5.996072e+03, 3.382829e+13
6.002068e+03, 3.406342e+13
6.008070e+03, 3.344806e+13
6.014078e+03, 3.558531e+13
6.020092e+03, 3.555222e+13
6.026112e+03, 3.689121e+13
6.032139e+03, 3.853946e+13
6.038171e+03, 3.946039e+13
6.044209e+03, 3.887883e+13
6.050253e+03, 4.065812e+13
6.056303e+03, 4.072246e+13
6.062360e+03, 4.104567e+13
6.068422e+03, 4.083711e+13
6.074490e+03, 4.391063e+13
6.080565e+03, 4.394784e+13
6.086645e+03, 4.446730e+13
6.092732e+03, 4.281212e+13
6.098825e+03, 4.362631e+13
6.104924e+03, 3.635989e+13
6.111029e+03, 4.246200e+13
6.117140e+03, 4.493515e+13
6.123257e+03, 3.380253e+13
6.129380e+03, 4.336948e+13
6.135509e+03, 4.425566e+13
6.141645e+03, 4.430618e+13
6.147787e+03, 4.612240e+13
6.153934e+03, 4.131318e+13
6.160088e+03, 3.277480e+13
6.166248e+03, 2.443478e+13
6.172415e+03, 2.895735e+13
6.178587e+03, 3.203583e+13
6.184766e+03, 3.303344e+13
6.190950e+03, 2.736403e+13
6.197141e+03, 2.913184e+13
6.203338e+03, 3.018015e+13
6.209542e+03, 3.206996e+13
6.215751e+03, 2.601640e+13
6.221967e+03, 2.664949e+13
6.228189e+03, 2.365979e+13
6.234417e+03, 2.564579e+13
6.240652e+03, 2.581485e+13
6.246892e+03, 2.638475e+13
6.253139e+03, 2.872409e+13
6.259392e+03, 2.779771e+13
6.265652e+03, 3.012606e+13
6.271917e+03, 3.143500e+13
6.278189e+03, 3.049620e+13
6.284467e+03, 3.153539e+13
6.290752e+03, 3.216101e+13
6.297043e+03, 3.155954e+13
6.303340e+03, 3.363115e+13
6.309643e+03, 3.321548e+13
6.315953e+03, 3.608194e+13
6.322269e+03, 3.417546e+13
6.328591e+03, 3.589151e+13
6.334920e+03, 3.603475e+13
6.341254e+03, 3.835061e+13
6.347596e+03, 3.982851e+13
6.353943e+03, 3.832527e+13
6.360297e+03, 3.373526e+13
6.366658e+03, 3.388400e+13
6.373024e+03, 3.434020e+13
6.379397e+03, 3.202221e+13
6.385777e+03, 3.103585e+13
6.392162e+03, 3.004529e+13
6.398555e+03, 3.385278e+13
6.404953e+03, 3.547740e+13
6.411358e+03, 3.862416e+13
6.417769e+03, 3.737120e+13
6.424187e+03, 3.699312e+13
6.430611e+03, 3.716870e+13
6.437042e+03, 3.772594e+13
6.443479e+03, 3.606419e+13
6.449923e+03, 3.862303e+13
6.456372e+03, 4.040017e+13
6.462829e+03, 3.532287e+13
6.469292e+03, 4.389863e+13
6.475761e+03, 4.358216e+13
6.482237e+03, 4.413059e+13
6.488719e+03, 4.202321e+13
6.495208e+03, 3.637291e+13
6.501703e+03, 4.066113e+13
6.508205e+03, 4.603685e+13
6.514713e+03, 4.621205e+13
6.521227e+03, 4.685568e+13
6.527749e+03, 4.822042e+13
6.534276e+03, 4.862921e+13
6.540811e+03, 5.024414e+13
6.547352e+03, 4.680507e+13
6.553899e+03, 4.565091e+13
6.560453e+03, 4.656300e+13
6.567013e+03, 4.676135e+13
6.573580e+03, 4.385758e+13
6.580154e+03, 4.621428e+13
6.586734e+03, 4.771033e+13
6.593321e+03, 4.663205e+13
6.599914e+03, 4.809008e+13
6.606514e+03, 4.814222e+13
6.613120e+03, 4.641886e+13
6.619734e+03, 4.596045e+13
6.626353e+03, 4.553396e+13
6.632980e+03, 4.583782e+13
6.639613e+03, 4.598273e+13
6.646252e+03, 4.596736e+13
6.652899e+03, 3.984723e+13
6.659551e+03, 3.884426e+13
6.666211e+03, 4.000619e+13
6.672877e+03, 4.189748e+13
6.679550e+03, 3.916446e+13
6.686230e+03, 3.299305e+13
6.692916e+03, 3.613798e+13
6.699609e+03, 3.711561e+13
6.706308e+03, 3.533087e+13
6.713015e+03, 3.461504e+13
6.719728e+03, 2.857945e+13
6.726447e+03, 2.968409e+13
6.733174e+03, 3.123831e+13
6.739907e+03, 3.170095e+13
6.746647e+03, 3.118211e+13
6.753394e+03, 2.917140e+13
6.760147e+03, 3.074736e+13
6.766907e+03, 3.248483e+13
6.773674e+03, 3.426228e+13
6.780448e+03, 3.218097e+13
6.787228e+03, 2.858112e+13
6.794015e+03, 2.954041e+13
6.800809e+03, 3.055325e+13
6.807610e+03, 3.163671e+13
6.814418e+03, 3.163270e+13
6.821232e+03, 3.111591e+13
6.828053e+03, 3.115028e+13
6.834882e+03, 3.148485e+13
6.841716e+03, 3.099245e+13
6.848558e+03, 3.156688e+13
6.855407e+03, 2.882052e+13
6.862262e+03, 2.787210e+13
6.869124e+03, 3.020531e+13
6.875994e+03, 3.155227e+13
6.882869e+03, 3.140621e+13
6.889752e+03, 3.055354e+13
6.896642e+03, 3.298115e+13
6.903539e+03, 3.242600e+13
6.910442e+03, 3.572673e+13
6.917353e+03, 3.432013e+13
6.924270e+03, 3.705840e+13
6.931194e+03, 3.889702e+13
6.938126e+03, 3.904080e+13
6.945064e+03, 4.137833e+13
6.952009e+03, 4.293585e+13
6.958961e+03, 4.264374e+13
6.965920e+03, 4.387624e+13
6.972886e+03, 4.408517e+13
6.979859e+03, 4.279784e+13
6.986838e+03, 4.697164e+13
6.993825e+03, 4.351125e+13
7.000819e+03, 4.559025e+13
7.007820e+03, 4.658103e+13
7.014828e+03, 4.774282e+13
7.021843e+03, 4.849481e+13
7.028864e+03, 5.395096e+13
7.035893e+03, 5.029738e+13
7.042929e+03, 5.867287e+13
7.049972e+03, 6.174338e+13
7.057022e+03, 4.645091e+13
7.064079e+03, 4.029274e+13
7.071143e+03, 4.537276e+13
7.078214e+03, 4.698423e+13
7.085292e+03, 4.779549e+13
7.092378e+03, 3.308696e+13
7.099470e+03, 3.539806e+13
7.106570e+03, 3.869140e+13
7.113676e+03, 4.024044e+13
7.120790e+03, 4.389312e+13
7.127911e+03, 3.259826e+13
7.135039e+03, 2.930232e+13
7.142174e+03, 3.109048e+13
7.149316e+03, 3.061576e+13
7.156465e+03, 3.643907e+13
7.163622e+03, 3.376246e+13
7.170785e+03, 3.635414e+13
7.177956e+03, 3.907668e+13
7.185134e+03, 4.089174e+13
7.192319e+03, 4.171953e+13
7.199511e+03, 3.946779e+13
7.206711e+03, 3.747955e+13
7.213918e+03, 3.949255e+13
7.221132e+03, 4.264992e+13
7.228353e+03, 4.450114e+13
7.235581e+03, 4.560510e+13
7.242817e+03, 4.663739e+13
7.250059e+03, 4.874444e+13
7.257309e+03, 5.059978e+13
7.264567e+03, 5.235763e+13
7.271831e+03, 5.136358e+13
7.279103e+03, 5.311841e+13
7.286382e+03, 5.457058e+13
7.293669e+03, 5.512699e+13
7.300962e+03, 5.741643e+13
7.308263e+03, 5.748479e+13
7.315572e+03, 5.895174e+13
7.322887e+03, 5.962865e+13
7.330210e+03, 5.585241e+13
7.337540e+03, 6.160128e+13
7.344878e+03, 6.116847e+13
7.352223e+03, 6.208458e+13
7.359575e+03, 6.100698e+13
7.366934e+03, 6.268769e+13
7.374301e+03, 6.507254e+13
7.381676e+03, 6.515977e+13
7.389057e+03, 6.493688e+13
7.396446e+03, 6.596952e+13
7.403843e+03, 6.479423e+13
7.411247e+03, 6.652551e+13
7.418658e+03, 6.585923e+13
7.426077e+03, 6.546910e+13
7.433503e+03, 6.705994e+13
7.440936e+03, 6.732386e+13
7.448377e+03, 6.614453e+13
7.455825e+03, 6.777684e+13
7.463281e+03, 6.597519e+13
7.470745e+03, 6.818039e+13
7.478215e+03, 6.876363e+13
7.485694e+03, 6.801776e+13
7.493179e+03, 6.722640e+13
7.500672e+03, 6.756593e+13
7.508173e+03, 6.836919e+13
7.515681e+03, 6.808971e+13
7.523197e+03, 6.910605e+13
7.530720e+03, 6.812651e+13
7.538251e+03, 6.915924e+13
7.545789e+03, 6.991770e+13
7.553335e+03, 6.967613e+13
7.560888e+03, 7.007582e+13
7.568449e+03, 6.938036e+13
7.576018e+03, 6.876475e+13
7.583594e+03, 6.991314e+13
7.591177e+03, 6.418213e+13
7.598768e+03, 6.468437e+13
7.606367e+03, 6.435628e+13
7.613973e+03, 6.402802e+13
7.621587e+03, 6.614987e+13
7.629209e+03, 6.226224e+13
7.636838e+03, 6.108916e+13
7.644475e+03, 6.139320e+13
7.652120e+03, 6.157855e+13
7.659772e+03, 6.140886e+13
7.667431e+03, 4.563881e+13
7.675099e+03, 5.393304e+13
7.682774e+03, 5.474379e+13
7.690457e+03, 5.601056e+13
7.698147e+03, 4.957933e+13
7.705845e+03, 5.423826e+13
7.713551e+03, 5.551665e+13
7.721265e+03, 5.681005e+13
7.728986e+03, 5.817617e+13
7.736715e+03, 6.016099e+13
7.744452e+03, 5.857289e+13
7.752196e+03, 5.390654e+13
7.759948e+03, 5.624350e+13
7.767708e+03, 5.631733e+13
7.775476e+03, 5.809344e+13
7.783252e+03, 5.646400e+13
7.791035e+03, 5.666667e+13
7.798826e+03, 5.762202e+13
7.806625e+03, 6.006681e+13
7.814431e+03, 6.107434e+13
7.822246e+03, 6.007750e+13
7.830068e+03, 5.837029e+13
7.837898e+03, 5.788809e+13
7.845736e+03, 5.787147e+13
7.853582e+03, 6.020731e+13
7.861435e+03, 6.109517e+13
7.869297e+03, 6.104857e+13
7.877166e+03, 6.234032e+13
7.885043e+03, 6.314783e+13
7.892928e+03, 6.338894e+13
7.900821e+03, 6.418771e+13
7.908722e+03, 6.296682e+13
7.916631e+03, 6.241529e+13
7.924547e+03, 6.357106e+13
7.932472e+03, 6.464823e+13
7.940404e+03, 6.381461e+13
7.948345e+03, 6.356819e+13
7.956293e+03, 6.598568e+13
7.964249e+03, 6.664365e+13
7.972214e+03, 6.746289e+13
7.980186e+03, 6.661557e+13
7.988166e+03, 6.671846e+13
7.996154e+03, 6.712962e+13
8.004150e+03, 6.685884e+13
8.012154e+03, 6.821990e+13
8.020167e+03, 6.872496e+13
8.028187e+03, 6.773499e+13
8.036215e+03, 6.911750e+13
8.044251e+03, 6.904388e+13
8.052295e+03, 6.847273e+13
8.060348e+03, 6.982379e+13
8.068408e+03, 6.857303e+13
8.076476e+03, 6.896155e+13
8.084553e+03, 6.979056e+13
8.092637e+03, 7.024973e+13
8.100730e+03, 7.097904e+13
8.108831e+03, 7.118463e+13
8.116940e+03, 6.940003e+13
8.125057e+03, 7.007128e+13
8.133182e+03, 7.166652e+13
8.141315e+03, 7.180314e+13
8.149456e+03, 7.216830e+13
8.157606e+03, 7.223882e+13
8.165763e+03, 7.112092e+13
8.173929e+03, 7.177797e+13
8.182103e+03, 6.310995e+13
8.190285e+03, 6.701187e+13
8.198475e+03, 5.654012e+13
8.206674e+03, 6.814718e+13
8.214880e+03, 6.967224e+13
8.223095e+03, 6.917602e+13
8.231318e+03, 7.067702e+13
8.239550e+03, 7.079508e+13
8.247789e+03, 7.086053e+13
8.256037e+03, 7.003344e+13
8.264293e+03, 7.121051e+13
8.272557e+03, 6.978909e+13
8.280830e+03, 6.961498e+13
8.289111e+03, 6.922563e+13
8.297400e+03, 6.913304e+13
8.305697e+03, 6.841090e+13
8.314003e+03, 6.919961e+13
8.322317e+03, 6.952274e+13
8.330639e+03, 6.636954e+13
8.338970e+03, 6.844975e+13
8.347309e+03, 6.844643e+13
8.355656e+03, 6.831836e+13
8.364012e+03, 6.713142e+13
8.372376e+03, 6.916223e+13
8.380748e+03, 6.613733e+13
8.389129e+03, 6.334080e+13
8.397518e+03, 6.763005e+13
8.405916e+03, 6.908039e+13
8.414322e+03, 6.752556e+13
8.422736e+03, 6.776870e+13
8.431159e+03, 6.605195e+13
8.439590e+03, 6.021793e+13
8.448029e+03, 6.377738e+13
8.456477e+03, 6.097240e+13
8.464934e+03, 6.234867e+13
8.473399e+03, 5.993960e+13
8.481872e+03, 6.300107e+13
8.490354e+03, 6.369363e+13
8.498845e+03, 5.999804e+13
8.507343e+03, 6.305325e+13
8.515851e+03, 6.153982e+13
8.524367e+03, 6.260534e+13
8.532891e+03, 6.320037e+13
8.541424e+03, 5.692478e+13
8.549965e+03, 6.258700e+13
8.558515e+03, 6.514982e+13
8.567074e+03, 6.566394e+13
8.575641e+03, 6.560919e+13
8.584216e+03, 6.561317e+13
8.592801e+03, 6.623583e+13
8.601393e+03, 6.647615e+13
8.609995e+03, 6.620285e+13
8.618605e+03, 6.710626e+13
8.627223e+03, 6.754467e+13
8.635851e+03, 6.772394e+13
8.644486e+03, 6.812954e+13
8.653131e+03, 6.776309e+13
8.661784e+03, 6.047687e+13
8.670446e+03, 6.734502e+13
8.679116e+03, 6.633129e+13
8.687795e+03, 6.377595e+13
8.696483e+03, 6.635044e+13
8.705180e+03, 6.745052e+13
8.713885e+03, 6.694307e+13
8.722599e+03, 6.741097e+13
8.731321e+03, 6.873717e+13
8.740053e+03, 6.695821e+13
8.748793e+03, 6.865580e+13
8.757542e+03, 6.807495e+13
8.766299e+03, 6.807605e+13
8.775065e+03, 6.892993e+13
8.783840e+03, 6.908853e+13
8.792624e+03, 6.960066e+13
8.801417e+03, 6.863792e+13
8.810218e+03, 6.567300e+13
8.819029e+03, 7.072326e+13
8.827848e+03, 6.614194e+13
8.836675e+03, 7.013623e+13
8.845512e+03, 7.002891e+13
8.854358e+03, 7.075092e+13
8.863212e+03, 6.444326e+13
8.872075e+03, 6.290868e+13
8.880947e+03, 6.408770e+13
8.889828e+03, 6.443218e+13
8.898718e+03, 6.491943e+13
8.907617e+03, 6.636852e+13
8.916524e+03, 6.633677e+13
8.925441e+03, 6.624244e+13
8.934366e+03, 6.601074e+13
8.943301e+03, 6.527640e+13
8.952244e+03, 6.523471e+13
8.961196e+03, 6.604891e+13
8.970157e+03, 6.607362e+13
8.979128e+03, 6.574792e+13
8.988107e+03, 6.722632e+13
8.997095e+03, 6.769029e+13
9.006092e+03, 6.636003e+13
9.015098e+03, 6.519040e+13
9.024113e+03, 6.565591e+13
9.033137e+03, 6.643652e+13
9.042170e+03, 6.756224e+13
9.051213e+03, 6.756618e+13
9.060264e+03, 6.675995e+13
9.069324e+03, 6.766849e+13
9.078393e+03, 6.805693e+13
9.087472e+03, 6.558490e+13
9.096559e+03, 6.777913e+13
9.105656e+03, 6.789079e+13
9.114761e+03, 6.912935e+13
9.123876e+03, 6.830924e+13
9.133000e+03, 6.910921e+13
9.142133e+03, 6.879519e+13
9.151275e+03, 6.841349e+13
9.160426e+03, 6.956395e+13
9.169587e+03, 6.957374e+13
9.178757e+03, 6.844549e+13
9.187935e+03, 7.014957e+13
9.197123e+03, 6.992039e+13
9.206320e+03, 6.889967e+13
9.215527e+03, 6.882141e+13
9.224742e+03, 6.780502e+13
9.233967e+03, 6.699144e+13
9.243201e+03, 6.864680e+13
9.252444e+03, 6.733029e+13
9.261697e+03, 6.749887e+13
9.270958e+03, 6.820682e+13
9.280229e+03, 6.737394e+13
9.289509e+03, 6.732637e+13
9.298799e+03, 6.643010e+13
9.308098e+03, 6.710049e+13
9.317406e+03, 6.713576e+13
9.326723e+03, 6.651753e+13
9.336050e+03, 6.736128e+13
9.345386e+03, 6.742833e+13
9.354731e+03, 6.659245e+13
9.364086e+03, 6.589223e+13
9.373450e+03, 6.664528e+13
9.382824e+03, 6.680606e+13
9.392206e+03, 6.660873e+13
9.401599e+03, 6.628143e+13
9.411000e+03, 6.731940e+13
9.420411e+03, 6.657065e+13
9.429832e+03, 6.760966e+13
9.439262e+03, 6.716052e+13
9.448701e+03, 6.626120e+13
9.458149e+03, 6.739630e+13
9.467608e+03, 6.663157e+13
9.477075e+03, 6.798487e+13
9.486552e+03, 6.750646e+13
9.496039e+03, 6.741742e+13
9.505535e+03, 6.756556e+13
9.515040e+03, 6.714724e+13
9.524555e+03, 6.807296e+13
9.534080e+03, 6.772230e+13
9.543614e+03, 6.739758e+13
9.553158e+03, 6.636945e+13
9.562711e+03, 6.752393e+13
9.572274e+03, 6.759220e+13
9.581846e+03, 6.818363e+13
9.591428e+03, 6.819677e+13
9.601019e+03, 6.543929e+13
9.610620e+03, 6.784473e+13
9.620231e+03, 6.814561e+13
9.629851e+03, 6.807233e+13
9.639481e+03, 6.394133e+13
9.649120e+03, 6.590942e+13
9.658769e+03, 6.667839e+13
9.668428e+03, 6.706320e+13
9.678097e+03, 6.456657e+13
9.687775e+03, 6.592075e+13
9.697463e+03, 6.774951e+13
9.707160e+03, 6.459069e+13
9.716867e+03, 6.681975e+13
9.726584e+03, 6.484040e+13
9.736311e+03, 6.640591e+13
9.746047e+03, 6.448887e+13
9.755793e+03, 6.695256e+13
9.765549e+03, 6.736573e+13
9.775314e+03, 6.510064e+13
9.785090e+03, 6.386421e+13
9.794875e+03, 6.511495e+13
9.804670e+03, 6.717157e+13
9.814474e+03, 6.656070e+13
9.824289e+03, 6.647463e+13
9.834113e+03, 6.567763e+13
9.843947e+03, 6.635775e+13
9.853791e+03, 6.680610e+13
9.863645e+03, 6.637148e+13
9.873509e+03, 6.643192e+13
9.883382e+03, 6.719516e+13
9.893265e+03, 6.690558e+13
9.903159e+03, 6.211080e+13
9.913062e+03, 5.917991e+13
9.922975e+03, 6.004232e+13
9.932898e+03, 6.059360e+13
9.942831e+03, 6.387460e+13
9.952774e+03, 6.394169e+13
9.962726e+03, 6.341669e+13
9.972689e+03, 6.271673e+13
9.982662e+03, 6.308476e+13
9.992644e+03, 6.260335e+13
1.000264e+04, 6.266205e+13
1.001264e+04, 6.262568e+13
1.002265e+04, 6.372153e+13
1.003268e+04, 6.335296e+13
1.004271e+04, 6.356427e+13
1.005275e+04, 6.139949e+13
1.006280e+04, 6.050972e+13
1.007287e+04, 6.371285e+13
1.008294e+04, 6.430798e+13
1.009302e+04, 6.318235e+13
1.010311e+04, 6.460430e+13
1.011322e+04, 6.339644e+13
1.012333e+04, 6.334148e+13
1.013345e+04, 6.395058e+13
1.014359e+04, 6.291530e+13
1.015373e+04, 6.281385e+13
1.016389e+04, 6.263261e+13
1.017405e+04, 6.396847e+13
1.018422e+04, 6.230469e+13
1.019441e+04, 6.356548e+13
1.020460e+04, 6.381428e+13
1.021481e+04, 6.339468e+13
1.022502e+04, 6.239874e+13
1.023525e+04, 6.414256e+13
1.024548e+04, 6.452658e+13
1.025573e+04, 6.162568e+13
1.026598e+04, 6.012494e+13
1.027625e+04, 6.082967e+13
1.028652e+04, 6.076617e+13
1.029681e+04, 6.164730e+13
1.030711e+04, 6.212925e+13
1.031742e+04, 6.257451e+13
1.032773e+04, 6.199047e+13
1.033806e+04, 6.143841e+13
1.034840e+04, 5.695117e+13
1.035875e+04, 6.312438e+13
1.036911e+04, 6.275972e+13
1.037947e+04, 6.206914e+13
1.038985e+04, 6.296360e+13
1.040024e+04, 6.041781e+13
1.041064e+04, 6.311144e+13
1.042106e+04, 6.181918e+13
1.043148e+04, 6.109597e+13
1.044191e+04, 6.305313e+13
1.045235e+04, 6.298482e+13
1.046280e+04, 6.318356e+13
1.047326e+04, 6.119214e+13
1.048374e+04, 6.215467e+13
1.049422e+04, 6.175744e+13
1.050472e+04, 6.324626e+13
1.051522e+04, 6.152407e+13
1.052574e+04, 6.149388e+13
1.053626e+04, 6.324891e+13
1.054680e+04, 6.229593e+13
1.055734e+04, 6.169840e+13
1.056790e+04, 6.248947e+13
1.057847e+04, 6.230091e+13
1.058905e+04, 6.118710e+13
1.059964e+04, 6.289258e+13
1.061024e+04, 6.128890e+13
1.062085e+04, 6.238639e+13
1.063147e+04, 6.268995e+13
1.064210e+04, 6.218691e+13
1.065274e+04, 6.156927e+13
1.066339e+04, 6.050338e+13
1.067406e+04, 6.117587e+13
1.068473e+04, 6.088910e+13
1.069542e+04, 6.173510e+13
1.070611e+04, 6.094443e+13
1.071682e+04, 6.187786e+13
1.072753e+04, 6.046959e+13
1.073826e+04, 6.098942e+13
1.074900e+04, 6.104384e+13
1.075975e+04, 6.164132e+13
1.077051e+04, 6.165925e+13
1.078128e+04, 6.164252e+13
1.079206e+04, 6.113005e+13
1.080285e+04, 6.104396e+13
1.081366e+04, 6.008573e+13
1.082447e+04, 6.135748e+13
1.083529e+04, 6.057029e+13
1.084613e+04, 6.107771e+13
1.085698e+04, 6.072196e+13
1.086783e+04, 6.082857e+13
1.087870e+04, 6.175568e+13
1.088958e+04, 6.060114e+13
1.090047e+04, 6.175005e+13
1.091137e+04, 6.048899e+13
1.092228e+04, 6.051179e+13
1.093320e+04, 6.115631e+13
1.094414e+04, 6.176711e+13
1.095508e+04, 6.081088e+13
1.096604e+04, 6.062881e+13
1.097700e+04, 5.999231e+13
1.098798e+04, 6.046869e+13
1.099897e+04, 6.084154e+13
1.100997e+04, 6.095220e+13
1.102098e+04, 5.949807e+13
1.103200e+04, 6.022804e+13
1.104303e+04, 6.013314e+13
1.105407e+04, 5.954077e+13
1.106513e+04, 5.986215e+13
1.107619e+04, 6.032392e+13
1.108727e+04, 5.991634e+13
1.109835e+04, 5.970492e+13
1.110945e+04, 5.993419e+13
1.112056e+04, 5.889810e+13
1.113168e+04, 5.986543e+13
1.114281e+04, 6.030556e+13
1.115396e+04, 5.937184e+13
1.116511e+04, 5.966865e+13
1.117628e+04, 5.958874e+13
1.118745e+04, 5.997260e+13
1.119864e+04, 5.920001e+13
1.120984e+04, 5.930640e+13
1.122105e+04, 5.925679e+13
1.123227e+04, 5.986190e+13
1.124350e+04, 5.950822e+13
1.125474e+04, 5.659279e+13
1.126600e+04, 5.979078e+13
1.127727e+04, 5.877826e+13
1.128854e+04, 5.914229e+13
1.129983e+04, 5.841671e+13
1.131113e+04, 5.935755e+13
1.132244e+04, 5.943829e+13
1.133376e+04, 5.914835e+13
1.134510e+04, 5.898160e+13
1.135644e+04, 5.861281e+13
1.136780e+04, 5.875456e+13
1.137917e+04, 5.484647e+13
1.139055e+04, 5.675826e+13
1.140194e+04, 5.372177e+13
1.141334e+04, 5.724786e+13
1.142475e+04, 5.778637e+13
1.143618e+04, 5.868703e+13
1.144761e+04, 5.771690e+13
1.145906e+04, 5.825320e+13
1.147052e+04, 5.819949e+13
1.148199e+04, 5.783991e+13
1.149347e+04, 5.823616e+13
1.150497e+04, 5.843294e+13
1.151647e+04, 5.860017e+13
1.152799e+04, 5.860713e+13
1.153952e+04, 5.817393e+13
1.155106e+04, 5.787139e+13
1.156261e+04, 5.799247e+13
1.157417e+04, 5.808235e+13
1.158574e+04, 5.813273e+13
1.159733e+04, 5.704104e+13
1.160893e+04, 5.507550e+13
1.162054e+04, 5.796322e+13
1.163216e+04, 5.776536e+13
1.164379e+04, 5.628348e+13
1.165543e+04, 5.746837e+13
1.166709e+04, 5.774182e+13
1.167875e+04, 5.749269e+13
1.169043e+04, 5.462786e+13
1.170212e+04, 5.750676e+13
1.171383e+04, 5.732814e+13
1.172554e+04, 5.761294e+13
1.173726e+04, 5.707756e+13
1.174900e+04, 5.715876e+13
1.176075e+04, 5.713706e+13
1.177251e+04, 5.301409e+13
1.178428e+04, 5.534288e+13
1.179607e+04, 5.615482e+13
1.180786e+04, 5.689364e+13
1.181967e+04, 5.690734e+13
1.183149e+04, 5.412934e+13
1.184332e+04, 5.673599e+13
1.185517e+04, 5.641843e+13
1.186702e+04, 5.660948e+13
1.187889e+04, 5.647684e+13
1.189077e+04, 5.218318e+13
1.190266e+04, 5.650934e+13
1.191456e+04, 5.605526e+13
1.192648e+04, 5.644024e+13
1.193840e+04, 5.581667e+13
1.195034e+04, 5.501857e+13
1.196229e+04, 5.481235e+13
1.197425e+04, 5.188930e+13
1.198623e+04, 5.510808e+13
1.199821e+04, 5.497191e+13
1.201021e+04, 5.520939e+13
1.202222e+04, 5.526031e+13
1.203424e+04, 5.470667e+13
1.204628e+04, 5.514459e+13
1.205833e+04, 5.555223e+13
1.207038e+04, 5.486616e+13
1.208245e+04, 5.445646e+13
1.209454e+04, 5.479253e+13
1.210663e+04, 5.455051e+13
1.211874e+04, 5.464322e+13
1.213086e+04, 5.485382e+13
1.214299e+04, 5.507216e+13
1.215513e+04, 5.506387e+13
1.216729e+04, 5.480847e+13
1.217945e+04, 5.500963e+13
1.219163e+04, 5.471112e+13
1.220382e+04, 5.425014e+13
1.221603e+04, 5.450820e+13
1.222824e+04, 5.458751e+13
1.224047e+04, 5.424787e+13
1.225271e+04, 5.458096e+13
1.226497e+04, 5.457315e+13
1.227723e+04, 5.427403e+13
1.228951e+04, 5.438441e+13
1.230180e+04, 5.416888e+13
1.231410e+04, 5.406509e+13
1.232641e+04, 5.368995e+13
1.233874e+04, 5.391744e+13
1.235108e+04, 5.399960e+13
1.236343e+04, 5.365423e+13
1.237579e+04, 5.394268e+13
1.238817e+04, 5.336870e+13
1.240056e+04, 5.350921e+13
1.241296e+04, 5.260462e+13
1.242537e+04, 5.229912e+13
1.243780e+04, 5.143514e+13
1.245023e+04, 5.311655e+13
1.246268e+04, 5.294449e+13
1.247515e+04, 5.261039e+13
1.248762e+04, 5.304087e+13
1.250011e+04, 5.259076e+13
1.251261e+04, 5.269073e+13
1.252512e+04, 5.037144e+13
1.253765e+04, 5.276408e+13
1.255018e+04, 5.234478e+13
1.256273e+04, 5.229614e+13
1.257530e+04, 5.236735e+13
1.258787e+04, 5.249063e+13
1.260046e+04, 5.208510e+13
1.261306e+04, 5.221222e+13
1.262567e+04, 5.224007e+13
1.263830e+04, 5.163918e+13
1.265094e+04, 5.225010e+13
1.266359e+04, 5.203886e+13
1.267625e+04, 5.115276e+13
1.268893e+04, 5.138766e+13
1.270162e+04, 5.186394e+13
1.271432e+04, 5.188073e+13
1.272703e+04, 5.219949e+13
1.273976e+04, 5.121675e+13
1.275250e+04, 5.136003e+13
1.276525e+04, 5.174382e+13
1.277802e+04, 5.151233e+13
1.279080e+04, 5.172738e+13
1.280359e+04, 5.151914e+13
1.281639e+04, 5.059926e+13
1.282921e+04, 4.915005e+13
1.284204e+04, 5.123597e+13
1.285488e+04, 5.042553e+13
1.286773e+04, 5.080526e+13
1.288060e+04, 5.040137e+13
1.289348e+04, 5.058496e+13
1.290637e+04, 4.885596e+13
1.291928e+04, 5.001541e+13
1.293220e+04, 5.023309e+13
1.294513e+04, 5.010622e+13
1.295808e+04, 5.078996e+13
1.297104e+04, 5.061127e+13
1.298401e+04, 5.015991e+13
1.299699e+04, 5.016895e+13
1.300999e+04, 4.982122e+13
1.302300e+04, 5.056607e+13
1.303602e+04, 4.963014e+13
1.304906e+04, 5.027014e+13
1.306211e+04, 5.005106e+13
1.307517e+04, 4.971961e+13
1.308824e+04, 4.971882e+13
1.310133e+04, 4.980429e+13
1.311443e+04, 4.973056e+13
1.312755e+04, 4.577638e+13
1.314067e+04, 4.847578e+13
1.315382e+04, 4.663477e+13
1.316697e+04, 4.965570e+13
1.318014e+04, 4.971453e+13
1.319332e+04, 4.981796e+13
1.320651e+04, 4.900324e+13
1.321972e+04, 4.898668e+13
1.323294e+04, 4.930936e+13
1.324617e+04, 4.919184e+13
1.325941e+04, 4.888719e+13
1.327267e+04, 4.853184e+13
1.328595e+04, 4.837284e+13
1.329923e+04, 4.783940e+13
1.331253e+04, 4.820656e+13
1.332584e+04, 4.664357e+13
1.333917e+04, 4.802200e+13
1.335251e+04, 4.590461e+13
1.336586e+04, 4.676574e+13
1.337923e+04, 4.626978e+13
1.339261e+04, 4.683548e+13
1.340600e+04, 4.674918e+13
1.341941e+04, 4.620866e+13
1.343283e+04, 4.612267e+13
1.344626e+04, 4.620316e+13
1.345970e+04, 4.665774e+13
1.347316e+04, 4.613646e+13
1.348664e+04, 4.640421e+13
1.350012e+04, 4.576846e+13
1.351362e+04, 4.626169e+13
1.352714e+04, 4.622375e+13
1.354066e+04, 4.582780e+13
1.355421e+04, 4.583719e+13
1.356776e+04, 4.624177e+13
1.358133e+04, 4.578311e+13
1.359491e+04, 4.582448e+13
1.360850e+04, 4.565758e+13
1.362211e+04, 4.525806e+13
1.363573e+04, 4.502618e+13
1.364937e+04, 4.520612e+13
1.366302e+04, 4.572644e+13
1.367668e+04, 4.577124e+13
1.369036e+04, 4.536150e+13
1.370405e+04, 4.575810e+13
1.371775e+04, 4.568369e+13
1.373147e+04, 4.558872e+13
1.374520e+04, 4.568173e+13
1.375895e+04, 4.568073e+13
1.377271e+04, 4.551937e+13
1.378648e+04, 4.521861e+13
1.380027e+04, 4.564918e+13
1.381407e+04, 4.567029e+13
1.382788e+04, 4.497984e+13
1.384171e+04, 4.533160e+13
1.385555e+04, 4.460949e+13
1.386941e+04, 4.464236e+13
1.388327e+04, 4.429331e+13
1.389716e+04, 4.451970e+13
1.391106e+04, 4.078014e+13
1.392497e+04, 4.183393e+13
1.393889e+04, 4.209507e+13
1.395283e+04, 4.283482e+13
1.396678e+04, 4.371558e+13
1.398075e+04, 4.211254e+13
1.399473e+04, 4.280486e+13
1.400873e+04, 4.273181e+13
1.402273e+04, 4.327454e+13
1.403676e+04, 4.375081e+13
1.405079e+04, 4.278996e+13
1.406484e+04, 4.305660e+13
1.407891e+04, 4.311299e+13
1.409299e+04, 4.261613e+13
1.410708e+04, 4.272314e+13
1.412119e+04, 4.231970e+13
1.413531e+04, 4.220305e+13
1.414944e+04, 4.286105e+13
1.416359e+04, 4.243091e+13
1.417776e+04, 4.212247e+13
1.419194e+04, 4.172253e+13
1.420613e+04, 4.284151e+13
1.422033e+04, 4.215798e+13
1.423455e+04, 4.170915e+13
1.424879e+04, 4.233133e+13
1.426304e+04, 4.159665e+13
1.427730e+04, 4.199097e+13
1.429158e+04, 4.142146e+13
1.430587e+04, 4.230282e+13
1.432018e+04, 4.219728e+13
1.433450e+04, 4.182719e+13
1.434883e+04, 4.114775e+13
1.436318e+04, 4.127286e+13
1.437754e+04, 4.174684e+13
1.439192e+04, 4.140655e+13
1.440631e+04, 4.110384e+13
1.442072e+04, 4.156285e+13
1.443514e+04, 4.202939e+13
1.444957e+04, 4.105219e+13
1.446402e+04, 4.129661e+13
1.447849e+04, 4.169279e+13
1.449297e+04, 4.152874e+13
1.450746e+04, 4.091976e+13
1.452197e+04, 4.100908e+13
1.453649e+04, 4.148220e+13
1.455102e+04, 4.157134e+13
1.456558e+04, 3.962832e+13
1.458014e+04, 4.153625e+13
1.459472e+04, 4.142017e+13
1.460932e+04, 3.775351e+13
1.462393e+04, 3.827053e+13
1.463855e+04, 3.985258e+13
1.465319e+04, 3.989873e+13
1.466784e+04, 3.940602e+13
1.468251e+04, 3.922973e+13
1.469719e+04, 3.868758e+13
1.471189e+04, 3.941199e+13
1.472660e+04, 4.053000e+13
1.474133e+04, 3.967385e+13
1.475607e+04, 3.942519e+13
1.477082e+04, 3.902852e+13
1.478560e+04, 3.948502e+13
1.480038e+04, 3.852968e+13
1.481518e+04, 3.963764e+13
1.483000e+04, 3.981320e+13
1.484483e+04, 3.994336e+13
1.485967e+04, 3.970879e+13
1.487453e+04, 3.882303e+13
1.488941e+04, 3.772326e+13
1.490429e+04, 3.880453e+13
1.491920e+04, 4.018064e+13
1.493412e+04, 3.968040e+13
1.494905e+04, 3.986435e+13
1.496400e+04, 3.989233e+13
1.497897e+04, 4.003247e+13
1.499394e+04, 3.992766e+13
1.500894e+04, 3.846470e+13
1.502395e+04, 3.632192e+13
1.503897e+04, 3.780109e+13
1.505401e+04, 3.753064e+13
1.506906e+04, 3.922034e+13
1.508413e+04, 3.894569e+13
1.509922e+04, 3.976687e+13
1.511432e+04, 3.931793e+13
1.512943e+04, 3.843491e+13
1.514456e+04, 3.847829e+13
1.515970e+04, 3.875462e+13
1.517486e+04, 3.794193e+13
1.519004e+04, 3.929508e+13
1.520523e+04, 3.922222e+13
1.522043e+04, 3.957359e+13
1.523566e+04, 3.922882e+13
1.525089e+04, 3.918748e+13
1.526614e+04, 3.784154e+13
1.528141e+04, 3.744241e+13
1.529669e+04, 3.901798e+13
1.531199e+04, 3.943875e+13
1.532730e+04, 3.788304e+13
1.534263e+04, 3.847058e+13
1.535797e+04, 3.937911e+13
1.537333e+04, 3.712361e+13
1.538870e+04, 3.706148e+13
1.540409e+04, 3.677701e+13
1.541949e+04, 3.693971e+13
1.543491e+04, 3.671365e+13
1.545035e+04, 3.912992e+13
1.546580e+04, 3.816098e+13
1.548126e+04, 3.826901e+13
1.549674e+04, 3.827747e+13
1.551224e+04, 3.728841e+13
1.552775e+04, 3.912191e+13
1.554328e+04, 3.628707e+13
1.555882e+04, 3.729665e+13
1.557438e+04, 3.676714e+13
1.558996e+04, 3.830040e+13
1.560555e+04, 3.804451e+13
1.562115e+04, 3.809588e+13
1.563677e+04, 3.752358e+13
1.565241e+04, 3.687548e+13
1.566806e+04, 3.857615e+13
1.568373e+04, 3.837367e+13
1.569941e+04, 3.781765e+13
1.571511e+04, 3.735582e+13
1.573083e+04, 3.643571e+13
1.574656e+04, 3.694283e+13
1.576231e+04, 3.612701e+13
1.577807e+04, 3.586803e+13
1.579385e+04, 3.845292e+13
1.580964e+04, 3.843017e+13
1.582545e+04, 3.753084e+13
1.584128e+04, 3.727451e+13
1.585712e+04, 3.846931e+13
1.587297e+04, 3.795350e+13
1.588885e+04, 3.596276e+13
1.590474e+04, 3.596301e+13
1.592064e+04, 3.682987e+13
1.593656e+04, 3.797706e+13
1.595250e+04, 3.837471e+13
1.596845e+04, 3.789478e+13
1.598442e+04, 3.787233e+13
1.600040e+04, 3.812096e+13
1.601640e+04, 3.776485e+13
1.603242e+04, 3.788031e+13
1.604845e+04, 3.651727e+13
1.606450e+04, 3.537341e+13
1.608057e+04, 3.615617e+13
1.609665e+04, 3.806888e+13
1.611274e+04, 3.771511e+13
1.612886e+04, 3.729338e+13
1.614498e+04, 3.689941e+13
1.616113e+04, 3.459330e+13
1.617729e+04, 3.779529e+13
1.619347e+04, 3.480278e+13
1.620966e+04, 3.466032e+13
1.622587e+04, 3.562925e+13
1.624210e+04, 3.612491e+13
1.625834e+04, 3.465906e+13
1.627460e+04, 3.687896e+13
1.629087e+04, 3.768731e+13
1.630716e+04, 3.685831e+13
1.632347e+04, 3.630349e+13
1.633979e+04, 3.694388e+13
1.635613e+04, 3.511875e+13
1.637249e+04, 3.575287e+13
1.638886e+04, 3.641266e+13
1.640525e+04, 3.642835e+13
1.642166e+04, 3.687901e+13
1.643808e+04, 3.674936e+13
1.645452e+04, 3.360428e+13
1.647097e+04, 3.605930e+13
1.648744e+04, 3.640396e+13
1.650393e+04, 3.675831e+13
1.652043e+04, 3.601228e+13
1.653695e+04, 3.454357e+13
1.655349e+04, 3.667001e+13
1.657004e+04, 3.664068e+13
1.658661e+04, 3.566219e+13
1.660320e+04, 3.594696e+13
1.661980e+04, 3.582442e+13
1.663642e+04, 3.601237e+13
1.665306e+04, 3.437605e+13
1.666971e+04, 3.533999e+13
1.668638e+04, 3.562659e+13
1.670307e+04, 3.518412e+13
1.671977e+04, 3.221002e+13
1.673649e+04, 3.456924e+13
1.675323e+04, 3.225725e+13
1.676998e+04, 3.424614e+13
1.678675e+04, 3.565746e+13
1.680354e+04, 3.546744e+13
1.682034e+04, 3.554401e+13
1.683716e+04, 3.522573e+13
1.685400e+04, 3.520418e+13
1.687085e+04, 3.366194e+13
1.688772e+04, 3.338672e+13
1.690461e+04, 3.204685e+13
1.692152e+04, 3.420580e+13
1.693844e+04, 3.466456e+13
1.695538e+04, 3.422799e+13
1.697233e+04, 3.427233e+13
1.698930e+04, 3.443356e+13
1.700629e+04, 3.370929e+13
1.702330e+04, 3.407881e+13
1.704032e+04, 3.405983e+13
1.705736e+04, 3.294973e+13
1.707442e+04, 3.231130e+13
1.709149e+04, 3.301518e+13
1.710859e+04, 2.874002e+13
1.712569e+04, 3.259160e+13
1.714282e+04, 3.303339e+13
1.715996e+04, 3.285009e+13
1.717712e+04, 3.198303e+13
1.719430e+04, 3.192083e+13
1.721149e+04, 3.207211e+13
1.722871e+04, 3.132323e+13
1.724593e+04, 3.114358e+13
1.726318e+04, 3.186004e+13
1.728044e+04, 3.202390e+13
1.729772e+04, 3.192231e+13
1.731502e+04, 3.026664e+13
1.733234e+04, 3.071764e+13
1.734967e+04, 2.986704e+13
1.736702e+04, 3.140442e+13
1.738439e+04, 3.077125e+13
1.740177e+04, 3.078837e+13
1.741917e+04, 3.008296e+13
1.743659e+04, 3.017045e+13
1.745403e+04, 3.082389e+13
1.747148e+04, 3.043960e+13
1.748895e+04, 3.060548e+13
1.750644e+04, 2.962636e+13
1.752395e+04, 2.994997e+13
1.754147e+04, 2.883429e+13
1.755901e+04, 2.871315e+13
1.757657e+04, 2.970811e+13
1.759415e+04, 2.870190e+13
1.761174e+04, 2.854632e+13
1.762936e+04, 2.846761e+13
1.764699e+04, 2.917636e+13
1.766463e+04, 2.882804e+13
1.768230e+04, 2.799772e+13
1.769998e+04, 2.904996e+13
1.771768e+04, 2.797098e+13
1.773540e+04, 2.863410e+13
1.775313e+04, 2.811671e+13
1.777089e+04, 2.704543e+13
1.778866e+04, 2.749056e+13
1.780644e+04, 2.786634e+13
1.782425e+04, 2.629216e+13
1.784208e+04, 2.756372e+13
1.785992e+04, 2.634961e+13
1.787778e+04, 2.681367e+13
1.789566e+04, 2.762304e+13
1.791355e+04, 2.668499e+13
1.793146e+04, 2.707547e+13
1.794940e+04, 2.673410e+13
1.796735e+04, 2.646067e+13
1.798531e+04, 2.693608e+13
1.800330e+04, 2.566604e+13
1.802130e+04, 2.544984e+13
1.803932e+04, 2.531951e+13
1.805736e+04, 2.565590e+13
1.807542e+04, 2.593232e+13
1.809349e+04, 2.636802e+13
1.811159e+04, 2.515312e+13
1.812970e+04, 2.543260e+13
1.814783e+04, 2.582370e+13
1.816598e+04, 2.595726e+13
1.818414e+04, 2.537910e+13
1.820233e+04, 2.475481e+13
1.822053e+04, 2.449128e+13
1.823875e+04, 2.648439e+13
1.825699e+04, 2.446580e+13
1.827525e+04, 2.434889e+13
1.829352e+04, 2.478179e+13
1.831181e+04, 2.501197e+13
1.833013e+04, 2.474452e+13
1.834846e+04, 2.486540e+13
1.836681e+04, 2.477483e+13
1.838517e+04, 2.465267e+13
1.840356e+04, 2.414446e+13
1.842196e+04, 2.390559e+13
1.844038e+04, 2.345052e+13
1.845882e+04, 2.354808e+13
1.847728e+04, 2.154981e+13
1.849576e+04, 2.342542e+13
1.851425e+04, 2.385086e+13
1.853277e+04, 2.306965e+13
1.855130e+04, 2.351561e+13
1.856985e+04, 2.221365e+13
1.858842e+04, 2.222610e+13
1.860701e+04, 2.235084e+13
1.862562e+04, 2.311543e+13
1.864424e+04, 2.281445e+13
1.866289e+04, 2.314703e+13
1.868155e+04, 2.318432e+13
1.870023e+04, 2.349318e+13
1.871893e+04, 2.263766e+13
1.873765e+04, 2.189849e+13
1.875639e+04, 2.295040e+13
1.877515e+04, 2.238714e+13
1.879392e+04, 2.227485e+13
1.881272e+04, 2.277100e+13
1.883153e+04, 2.356045e+13
1.885036e+04, 2.184192e+13
1.886921e+04, 2.242537e+13
1.888808e+04, 2.257490e+13
1.890697e+04, 2.248264e+13
1.892587e+04, 2.144820e+13
1.894480e+04, 2.237917e+13
1.896374e+04, 2.270814e+13
1.898271e+04, 2.180833e+13
1.900169e+04, 2.268883e+13
1.902069e+04, 2.222609e+13
1.903971e+04, 2.204570e+13
1.905875e+04, 2.126235e+13
1.907781e+04, 2.208514e+13
1.909689e+04, 2.183079e+13
1.911599e+04, 2.136070e+13
1.913510e+04, 2.244670e+13
1.915424e+04, 2.190912e+13
1.917339e+04, 2.172669e+13
1.919257e+04, 2.202261e+13
1.921176e+04, 2.182671e+13
1.923097e+04, 2.160373e+13
1.925020e+04, 2.159488e+13
1.926945e+04, 2.141268e+13
1.928872e+04, 2.109369e+13
1.930801e+04, 1.752860e+13
1.932732e+04, 1.961602e+13
1.934664e+04, 2.078169e+13
1.936599e+04, 2.131261e+13
1.938536e+04, 2.096647e+13
1.940474e+04, 2.065731e+13
1.942415e+04, 2.058455e+13
1.944357e+04, 1.884634e+13
1.946301e+04, 1.627182e+13
1.948248e+04, 1.950195e+13
1.950196e+04, 1.820416e+13
1.952146e+04, 1.866635e+13
1.954098e+04, 2.042958e+13
1.956052e+04, 2.024225e+13
1.958009e+04, 2.117496e+13
1.959967e+04, 2.047493e+13
1.961927e+04, 2.000978e+13
1.963888e+04, 1.990335e+13
1.965852e+04, 2.063985e+13
1.967818e+04, 2.054326e+13
1.969786e+04, 2.048001e+13
1.971756e+04, 2.009485e+13
1.973728e+04, 1.945043e+13
1.975701e+04, 1.833256e+13
1.977677e+04, 1.500601e+13
1.979655e+04, 1.716243e+13
1.981634e+04, 1.824687e+13
1.983616e+04, 1.915947e+13
1.985600e+04, 1.718605e+13
1.987585e+04, 1.699290e+13
1.989573e+04, 1.884715e+13
1.991562e+04, 1.807920e+13
1.993554e+04, 1.821373e+13
1.995547e+04, 1.900498e+13
1.997543e+04, 1.839092e+13
1.999541e+04, 1.910757e+13
2.001540e+04, 1.909108e+13
2.003542e+04, 1.932972e+13
2.005545e+04, 1.921044e+13
2.007551e+04, 1.938629e+13
2.009558e+04, 1.868326e+13
2.011568e+04, 1.864156e+13
2.013579e+04, 1.876162e+13
2.015593e+04, 1.883401e+13
2.017609e+04, 1.873945e+13
2.019626e+04, 1.804030e+13
2.021646e+04, 1.892485e+13
2.023667e+04, 1.874037e+13
2.025691e+04, 1.849300e+13
2.027717e+04, 1.817960e+13
2.029744e+04, 1.808548e+13
2.031774e+04, 1.851440e+13
2.033806e+04, 1.841391e+13
2.035840e+04, 1.816798e+13
2.037876e+04, 1.837690e+13
2.039914e+04, 1.818078e+13
2.041953e+04, 1.835754e+13
2.043995e+04, 1.792449e+13
2.046039e+04, 1.797149e+13
2.048085e+04, 1.786936e+13
2.050134e+04, 1.777739e+13
2.052184e+04, 1.804296e+13
2.054236e+04, 1.750641e+13
2.056290e+04, 1.766378e+13
2.058346e+04, 1.793260e+13
2.060405e+04, 1.767935e+13
2.062465e+04, 1.774638e+13
2.064528e+04, 1.717918e+13
2.066592e+04, 1.755423e+13
2.068659e+04, 1.749915e+13
2.070727e+04, 1.775278e+13
2.072798e+04, 1.726711e+13
2.074871e+04, 1.739707e+13
2.076946e+04, 1.737581e+13
2.079023e+04, 1.743807e+13
2.081102e+04, 1.720733e+13
2.083183e+04, 1.721977e+13
2.085266e+04, 1.706655e+13
2.087351e+04, 1.704215e+13
2.089439e+04, 1.689169e+13
2.091528e+04, 1.736732e+13
2.093620e+04, 1.706580e+13
2.095713e+04, 1.688958e+13
2.097809e+04, 1.693542e+13
2.099907e+04, 1.682837e+13
2.102007e+04, 1.688790e+13
2.104109e+04, 1.701458e+13
2.106213e+04, 1.682630e+13
2.108319e+04, 1.660458e+13
2.110427e+04, 1.673334e+13
2.112538e+04, 1.654165e+13
2.114650e+04, 1.685693e+13
2.116765e+04, 1.618400e+13
2.118882e+04, 1.661371e+13
2.121001e+04, 1.655277e+13
2.123122e+04, 1.662626e+13
2.125245e+04, 1.653758e+13
2.127370e+04, 1.646762e+13
2.129497e+04, 1.639588e+13
2.131627e+04, 1.650756e+13
2.133758e+04, 1.648376e+13
2.135892e+04, 1.647523e+13
2.138028e+04, 1.620257e+13
2.140166e+04, 1.621693e+13
2.142306e+04, 1.625792e+13
2.144449e+04, 1.657360e+13
2.146593e+04, 1.634935e+13
2.148740e+04, 1.617408e+13
2.150888e+04, 1.617208e+13
2.153039e+04, 1.603739e+13
2.155192e+04, 1.614834e+13
2.157347e+04, 1.617625e+13
2.159505e+04, 1.602912e+13
2.161664e+04, 1.621626e+13
2.163826e+04, 1.594108e+13
2.165990e+04, 1.603994e+13
2.168156e+04, 1.609707e+13
2.170324e+04, 1.599267e+13
2.172494e+04, 1.594025e+13
2.174667e+04, 1.593803e+13
2.176841e+04, 1.582153e+13
2.179018e+04, 1.552238e+13
2.181197e+04, 1.571575e+13
2.183378e+04, 1.563957e+13
2.185562e+04, 1.576592e+13
2.187747e+04, 1.571636e+13
2.189935e+04, 1.542677e+13
2.192125e+04, 1.566243e+13
2.194317e+04, 1.568266e+13
2.196512e+04, 1.558303e+13
2.198708e+04, 1.551802e+13
2.200907e+04, 1.543165e+13
2.203108e+04, 1.535523e+13
2.205311e+04, 1.442918e+13
2.207516e+04, 1.487707e+13
2.209724e+04, 1.454064e+13
2.211933e+04, 1.533751e+13
2.214145e+04, 1.535256e+13
2.216359e+04, 1.530947e+13
2.218576e+04, 1.530644e+13
2.220794e+04, 1.503266e+13
2.223015e+04, 1.509294e+13
2.225238e+04, 1.523213e+13
2.227463e+04, 1.482441e+13
2.229691e+04, 1.502731e+13
2.231921e+04, 1.503300e+13
2.234152e+04, 1.493217e+13
2.236387e+04, 1.500868e+13
2.238623e+04, 1.491808e+13
2.240862e+04, 1.486594e+13
2.243102e+04, 1.491888e+13
2.245346e+04, 1.485146e+13
2.247591e+04, 1.481747e+13
2.249839e+04, 1.483030e+13
2.252088e+04, 1.481529e+13
2.254340e+04, 1.471285e+13
2.256595e+04, 1.474731e+13
2.258851e+04, 1.461760e+13
2.261110e+04, 1.394253e+13
2.263371e+04, 1.358364e+13
2.265635e+04, 1.351012e+13
2.267900e+04, 1.441875e+13
2.270168e+04, 1.436038e+13
2.272438e+04, 1.439043e+13
2.274711e+04, 1.442413e+13
2.276986e+04, 1.439462e+13
2.279263e+04, 1.429619e+13
2.281542e+04, 1.421182e+13
2.283823e+04, 1.401682e+13
2.286107e+04, 1.422772e+13
2.288393e+04, 1.415636e+13
2.290682e+04, 1.415625e+13
2.292972e+04, 1.325466e+13
2.295265e+04, 1.269858e+13
2.297561e+04, 1.300323e+13
2.299858e+04, 1.337417e+13
2.302158e+04, 1.340089e+13
2.304460e+04, 1.343220e+13
2.306765e+04, 1.307152e+13
2.309071e+04, 1.340256e+13
2.311380e+04, 1.329485e+13
2.313692e+04, 1.335374e+13
2.316006e+04, 1.323863e+13
2.318322e+04, 1.327218e+13
2.320640e+04, 1.326624e+13
2.322961e+04, 1.178638e+13
2.325283e+04, 1.219174e+13
2.327609e+04, 1.258775e+13
2.329936e+04, 1.250326e+13
2.332266e+04, 1.272748e+13
2.334599e+04, 1.221148e+13
2.336933e+04, 1.239228e+13
2.339270e+04, 1.199613e+13
2.341609e+04, 1.264935e+13
2.343951e+04, 1.249776e+13
2.346295e+04, 1.262794e+13
2.348641e+04, 1.252684e+13
2.350990e+04, 1.250225e+13
2.353341e+04, 1.089576e+13
2.355694e+04, 1.183264e+13
2.358050e+04, 1.185057e+13
2.360408e+04, 1.193224e+13
2.362768e+04, 1.196621e+13
2.365131e+04, 1.216848e+13
2.367496e+04, 1.197762e+13
2.369864e+04, 1.199138e+13
2.372234e+04, 1.205690e+13
2.374606e+04, 1.192104e+13
2.376980e+04, 1.203996e+13
2.379357e+04, 1.188575e+13
2.381737e+04, 1.162612e+13
2.384119e+04, 1.055929e+13
2.386503e+04, 1.105429e+13
2.388889e+04, 1.123646e+13
2.391278e+04, 1.123273e+13
2.393669e+04, 1.142204e+13
2.396063e+04, 1.115520e+13
2.398459e+04, 1.126323e+13
2.400858e+04, 1.119748e+13
2.403258e+04, 1.100859e+13
2.405662e+04, 1.109455e+13
2.408067e+04, 1.078797e+13
2.410475e+04, 1.086888e+13
2.412886e+04, 1.076440e+13
2.415299e+04, 1.021572e+13
2.417714e+04, 1.046260e+13
2.420132e+04, 1.056776e+13
2.422552e+04, 1.022178e+13
2.424974e+04, 1.061211e+13
2.427399e+04, 1.020319e+13
2.429827e+04, 1.051203e+13
2.432257e+04, 1.030865e+13
2.434689e+04, 1.014805e+13
2.437124e+04, 9.879404e+12
2.439561e+04, 1.044837e+13
2.442000e+04, 1.001442e+13
2.444442e+04, 9.898818e+12
2.446887e+04, 9.685319e+12
2.449334e+04, 9.679087e+12
2.451783e+04, 9.677501e+12
2.454235e+04, 9.246729e+12
2.456689e+04, 9.858656e+12
2.459146e+04, 9.750227e+12
2.461605e+04, 9.117019e+12
2.464066e+04, 9.724544e+12
2.466530e+04, 9.385362e+12
2.468997e+04, 9.355870e+12
2.471466e+04, 9.451528e+12
2.473937e+04, 8.990202e+12
2.476411e+04, 9.302917e+12
2.478888e+04, 9.103113e+12
2.481367e+04, 8.685257e+12
2.483848e+04, 9.243336e+12
2.486332e+04, 8.162736e+12
2.488818e+04, 8.109085e+12
2.491307e+04, 8.018331e+12
2.493798e+04, 8.250549e+12
2.496292e+04, 8.340978e+12
2.498788e+04, 8.031232e+12
2.501287e+04, 8.231567e+12
2.503788e+04, 7.993223e+12
2.506292e+04, 7.867500e+12
2.508799e+04, 8.319117e+12
2.511307e+04, 8.061428e+12
2.513819e+04, 7.964009e+12
2.516332e+04, 8.006215e+12
2.518849e+04, 8.064668e+12
2.521368e+04, 8.097014e+12
2.523889e+04, 7.770512e+12
2.526413e+04, 7.750240e+12
2.528939e+04, 7.733674e+12
2.531468e+04, 8.128779e+12
2.534000e+04, 7.828323e+12
2.536534e+04, 7.612352e+12
2.539070e+04, 7.862840e+12
2.541609e+04, 7.837559e+12
2.544151e+04, 7.776075e+12
2.546695e+04, 7.897617e+12
2.549242e+04, 7.734085e+12
2.551791e+04, 7.784046e+12
2.554343e+04, 7.838295e+12
2.556897e+04, 7.808005e+12
2.559454e+04, 7.875471e+12
2.562014e+04, 7.553343e+12
2.564576e+04, 7.740860e+12
2.567140e+04, 7.767682e+12
2.569707e+04, 7.603065e+12
2.572277e+04, 8.074047e+12
2.574849e+04, 7.558110e+12
2.577424e+04, 7.389193e+12
2.580002e+04, 7.866541e+12
2.582582e+04, 7.563099e+12
2.585164e+04, 7.972962e+12
2.587749e+04, 7.749713e+12
2.590337e+04, 7.682347e+12
2.592927e+04, 7.881154e+12
2.595520e+04, 7.577457e+12
2.598116e+04, 7.549963e+12
2.600714e+04, 7.880861e+12
2.603315e+04, 7.818672e+12
2.605918e+04, 7.699477e+12
2.608524e+04, 7.352791e+12
2.611132e+04, 8.070428e+12
2.613744e+04, 7.729164e+12
2.616357e+04, 7.833440e+12
2.618974e+04, 7.266483e+12
2.621593e+04, 7.255929e+12
2.624214e+04, 7.379776e+12
2.626838e+04, 7.395949e+12
2.629465e+04, 7.419507e+12
2.632095e+04, 7.520000e+12
2.634727e+04, 7.234721e+12
2.637362e+04, 7.415869e+12
2.639999e+04, 7.227610e+12
2.642639e+04, 7.300114e+12
2.645282e+04, 7.297826e+12
2.647927e+04, 7.372790e+12
2.650575e+04, 7.254796e+12
2.653225e+04, 7.245307e+12
2.655879e+04, 6.975354e+12
2.658534e+04, 7.398207e+12
2.661193e+04, 7.135480e+12
2.663854e+04, 7.227819e+12
2.666518e+04, 7.266760e+12
2.669185e+04, 7.233190e+12
2.671854e+04, 7.243888e+12
2.674526e+04, 7.231511e+12
2.677200e+04, 6.830343e+12
2.679877e+04, 7.237803e+12
2.682557e+04, 7.024108e+12
2.685240e+04, 6.997856e+12
2.687925e+04, 7.223810e+12
2.690613e+04, 7.194300e+12
2.693303e+04, 6.824785e+12
2.695997e+04, 6.661085e+12
2.698693e+04, 7.077236e+12
2.701391e+04, 7.017890e+12
2.704093e+04, 6.681090e+12
2.706797e+04, 6.878303e+12
2.709504e+04, 6.975096e+12
2.712213e+04, 6.598949e+12
2.714925e+04, 6.810940e+12
2.717640e+04, 6.621267e+12
2.720358e+04, 6.852256e+12
2.723078e+04, 6.648829e+12
2.725801e+04, 6.692891e+12
2.728527e+04, 6.358678e+12
2.731256e+04, 6.813417e+12
2.733987e+04, 6.813001e+12
2.736721e+04, 6.270059e+12
2.739458e+04, 6.228381e+12
2.742197e+04, 6.691172e+12
2.744939e+04, 6.537338e+12
2.747684e+04, 6.520362e+12
2.750432e+04, 6.312638e+12
2.753182e+04, 6.438254e+12
2.755936e+04, 6.278129e+12
2.758692e+04, 6.467181e+12
2.761450e+04, 6.438721e+12
2.764212e+04, 6.378620e+12
2.766976e+04, 5.921539e+12
2.769743e+04, 6.166532e+12
2.772513e+04, 6.269636e+12
2.775285e+04, 6.411847e+12
2.778060e+04, 6.187296e+12
2.780839e+04, 6.211649e+12
2.783619e+04, 6.233908e+12
2.786403e+04, 5.849768e+12
2.789189e+04, 5.919551e+12
2.791979e+04, 5.865176e+12
2.794771e+04, 6.166986e+12
2.797565e+04, 6.007956e+12
2.800363e+04, 5.971421e+12
2.803163e+04, 5.552049e+12
2.805966e+04, 5.636777e+12
2.808772e+04, 5.914310e+12
2.811581e+04, 5.933570e+12
2.814393e+04, 5.810215e+12
2.817207e+04, 5.760019e+12
2.820024e+04, 5.434323e+12
2.822844e+04, 5.765786e+12
2.825667e+04, 5.733875e+12
2.828493e+04, 5.832886e+12
2.831321e+04, 5.813889e+12
2.834153e+04, 5.678024e+12
2.836987e+04, 5.475263e+12
2.839824e+04, 5.778647e+12
2.842664e+04, 5.643486e+12
2.845506e+04, 5.734796e+12
2.848352e+04, 5.654165e+12
2.851200e+04, 5.516456e+12
2.854051e+04, 5.269470e+12
2.856905e+04, 5.454570e+12
2.859762e+04, 5.912810e+12
2.862622e+04, 5.627913e+12
2.865485e+04, 5.554444e+12
2.868350e+04, 5.411115e+12
2.871219e+04, 5.335413e+12
2.874090e+04, 5.258222e+12
2.876964e+04, 5.719469e+12
2.879841e+04, 5.627883e+12
2.882721e+04, 5.580934e+12
2.885603e+04, 5.298111e+12
2.888489e+04, 5.272731e+12
2.891377e+04, 5.216641e+12
2.894269e+04, 5.629251e+12
2.897163e+04, 5.608395e+12
2.900060e+04, 5.093474e+12
2.902960e+04, 5.273136e+12
2.905863e+04, 5.396744e+12
2.908769e+04, 4.802460e+12
2.911678e+04, 5.333529e+12
2.914590e+04, 5.438041e+12
2.917504e+04, 5.285584e+12
2.920422e+04, 5.121186e+12
2.923342e+04, 4.954468e+12
2.926265e+04, 5.140885e+12
2.929192e+04, 4.798586e+12
2.932121e+04, 5.315690e+12
2.935053e+04, 5.093909e+12
2.937988e+04, 5.082361e+12
2.940926e+04, 4.895409e+12
2.943867e+04, 4.842208e+12
2.946811e+04, 4.882275e+12
2.949758e+04, 4.850382e+12
2.952707e+04, 5.077164e+12
2.955660e+04, 4.864056e+12
2.958616e+04, 5.071490e+12
2.961574e+04, 4.773278e+12
2.964536e+04, 4.912688e+12
2.967501e+04, 4.705320e+12
2.970468e+04, 4.741748e+12
2.973439e+04, 4.916713e+12
2.976412e+04, 5.030022e+12
2.979388e+04, 4.904067e+12
2.982368e+04, 4.742127e+12
2.985350e+04, 4.849996e+12
2.988335e+04, 4.445398e+12
2.991324e+04, 4.749117e+12
2.994315e+04, 4.918351e+12
2.997309e+04, 4.823456e+12
3.000307e+04, 4.712859e+12
3.003307e+04, 4.627873e+12
3.006310e+04, 4.617374e+12
3.009317e+04, 4.233595e+12
3.012326e+04, 4.653128e+12
3.015338e+04, 4.934892e+12
3.018354e+04, 4.800124e+12
3.021372e+04, 4.563724e+12
3.024393e+04, 4.586271e+12
3.027418e+04, 4.504972e+12
3.030445e+04, 4.465517e+12
3.033476e+04, 4.722122e+12
3.036509e+04, 4.648799e+12
3.039546e+04, 4.644316e+12
3.042585e+04, 4.375558e+12
3.045628e+04, 4.405202e+12
3.048673e+04, 4.222057e+12
3.051722e+04, 4.335490e+12
3.054774e+04, 4.725085e+12
3.057829e+04, 4.522491e+12
3.060886e+04, 4.551308e+12
3.063947e+04, 4.481058e+12
3.067011e+04, 4.443833e+12
3.070078e+04, 4.275956e+12
3.073148e+04, 4.228106e+12
3.076221e+04, 4.434164e+12
3.079298e+04, 4.504753e+12
3.082377e+04, 4.387701e+12
3.085459e+04, 4.207848e+12
3.088545e+04, 4.232434e+12
3.091633e+04, 4.155464e+12
3.094725e+04, 4.232534e+12
3.097820e+04, 4.243082e+12
3.100918e+04, 4.481262e+12
3.104018e+04, 4.408735e+12
3.107122e+04, 4.198398e+12
3.110230e+04, 4.230163e+12
3.113340e+04, 4.146860e+12
3.116453e+04, 4.165212e+12
3.119570e+04, 4.194689e+12
3.122689e+04, 4.308040e+12
3.125812e+04, 4.314974e+12
3.128938e+04, 4.063925e+12
3.132067e+04, 3.897861e+12
3.135199e+04, 4.030816e+12
3.138334e+04, 4.199624e+12
3.141472e+04, 4.225636e+12
3.144614e+04, 4.074174e+12
3.147758e+04, 4.135305e+12
3.150906e+04, 4.176247e+12
3.154057e+04, 4.022899e+12
3.157211e+04, 3.893122e+12
3.160368e+04, 4.166081e+12
3.163529e+04, 4.167589e+12
3.166692e+04, 4.022560e+12
3.169859e+04, 4.105854e+12
3.173029e+04, 4.018515e+12
3.176202e+04, 4.012382e+12
3.179378e+04, 3.775445e+12
3.182557e+04, 3.931428e+12
3.185740e+04, 4.009100e+12
3.188926e+04, 3.979307e+12
3.192115e+04, 3.985801e+12
3.195307e+04, 3.960429e+12
3.198502e+04, 3.860163e+12
3.201700e+04, 3.801794e+12
3.204902e+04, 3.940384e+12
3.208107e+04, 4.061478e+12
3.211315e+04, 3.998823e+12
3.214526e+04, 3.970101e+12
3.217741e+04, 3.855838e+12
3.220959e+04, 3.881319e+12
3.224180e+04, 3.890099e+12
3.227404e+04, 3.747619e+12
3.230631e+04, 3.910035e+12
3.233862e+04, 3.809590e+12
3.237096e+04, 3.787524e+12
3.240333e+04, 3.784726e+12
3.243573e+04, 3.720578e+12
3.246817e+04, 3.783680e+12
3.250064e+04, 3.801717e+12
3.253314e+04, 3.820090e+12
3.256567e+04, 3.890339e+12
3.259824e+04, 3.874160e+12
3.263083e+04, 3.808234e+12
3.266346e+04, 3.763255e+12
3.269613e+04, 3.699301e+12
3.272882e+04, 3.827993e+12
3.276155e+04, 3.670493e+12
3.279431e+04, 3.717363e+12
3.282711e+04, 3.626430e+12
3.285994e+04, 3.565776e+12
3.289280e+04, 3.700981e+12
3.292569e+04, 3.588196e+12
3.295861e+04, 3.669214e+12
3.299157e+04, 3.685578e+12
3.302456e+04, 3.754379e+12
3.305759e+04, 3.696889e+12
3.309065e+04, 3.629846e+12
3.312374e+04, 3.684153e+12
3.315686e+04, 3.585837e+12
3.319002e+04, 3.577193e+12
3.322321e+04, 3.655654e+12
3.325643e+04, 3.619482e+12
3.328969e+04, 3.726476e+12
3.332298e+04, 3.649174e+12
3.335630e+04, 3.545326e+12
3.338966e+04, 3.326777e+12
3.342305e+04, 3.483549e+12
3.345647e+04, 3.541070e+12
3.348993e+04, 3.564029e+12
3.352342e+04, 3.595670e+12
3.355694e+04, 3.468412e+12
3.359050e+04, 3.557052e+12
3.362409e+04, 3.548343e+12
3.365771e+04, 3.498640e+12
3.369137e+04, 3.553199e+12
3.372506e+04, 3.520306e+12
3.375878e+04, 3.483469e+12
3.379254e+04, 3.494056e+12
3.382634e+04, 3.490322e+12
3.386016e+04, 3.488950e+12
3.389402e+04, 3.525352e+12
3.392792e+04, 3.356804e+12
3.396184e+04, 3.184939e+12
3.399581e+04, 3.392706e+12
3.402980e+04, 3.431242e+12
3.406383e+04, 3.410345e+12
3.409790e+04, 3.361493e+12
3.413199e+04, 3.350191e+12
3.416613e+04, 3.362216e+12
3.420029e+04, 3.395593e+12
3.423449e+04, 3.423018e+12
3.426873e+04, 3.418589e+12
3.430300e+04, 3.389382e+12
3.433730e+04, 3.397205e+12
3.437164e+04, 3.375504e+12
3.440601e+04, 3.360434e+12
3.444041e+04, 3.297371e+12
3.447485e+04, 3.300304e+12
3.450933e+04, 3.246513e+12
3.454384e+04, 3.223099e+12
3.457838e+04, 3.097937e+12
3.461296e+04, 3.238458e+12
3.464757e+04, 3.248687e+12
3.468222e+04, 3.338373e+12
3.471690e+04, 3.321452e+12
3.475162e+04, 3.282990e+12
3.478637e+04, 3.303595e+12
3.482116e+04, 3.231135e+12
3.485598e+04, 3.245371e+12
3.489083e+04, 3.233183e+12
3.492573e+04, 3.189679e+12
3.496065e+04, 3.271301e+12
3.499561e+04, 3.176874e+12
3.503061e+04, 3.245514e+12
3.506564e+04, 3.167703e+12
3.510070e+04, 3.099200e+12
3.513580e+04, 3.106524e+12
3.517094e+04, 3.139746e+12
3.520611e+04, 2.923325e+12
3.524132e+04, 3.073632e+12
3.527656e+04, 3.137324e+12
3.531184e+04, 3.191976e+12
3.534715e+04, 3.161070e+12
3.538249e+04, 3.075684e+12
3.541788e+04, 3.137010e+12
3.545329e+04, 3.085213e+12
3.548875e+04, 3.090472e+12
3.552424e+04, 3.067031e+12
3.555976e+04, 3.079871e+12
3.559532e+04, 3.069205e+12
3.563092e+04, 3.088443e+12
3.566655e+04, 3.072969e+12
3.570221e+04, 2.879689e+12
3.573792e+04, 2.936075e+12
3.577365e+04, 2.952483e+12
3.580943e+04, 3.044718e+12
3.584524e+04, 3.021264e+12
3.588108e+04, 2.849533e+12
3.591696e+04, 2.921464e+12
3.595288e+04, 3.006253e+12
3.598883e+04, 2.948824e+12
3.602482e+04, 2.944434e+12
3.606085e+04, 2.999154e+12
3.609691e+04, 2.985254e+12
3.613300e+04, 2.948149e+12
3.616914e+04, 2.937156e+12
3.620531e+04, 2.939014e+12
3.624151e+04, 2.921026e+12
3.627775e+04, 2.944999e+12
3.631403e+04, 2.864851e+12
3.635035e+04, 2.787010e+12
3.638670e+04, 2.728963e+12
3.642308e+04, 2.898035e+12
3.645951e+04, 2.883161e+12
3.649596e+04, 2.851270e+12
3.653246e+04, 2.836602e+12
3.656899e+04, 2.783791e+12
3.660556e+04, 2.733619e+12
3.664217e+04, 2.769019e+12
3.667881e+04, 2.846526e+12
3.671549e+04, 2.839680e+12
3.675220e+04, 2.811447e+12
3.678896e+04, 2.779987e+12
3.682575e+04, 2.809138e+12
3.686257e+04, 2.790106e+12
3.689943e+04, 2.783937e+12
3.693633e+04, 2.740489e+12
3.697327e+04, 2.634407e+12
3.701024e+04, 2.672502e+12
3.704725e+04, 2.670000e+12
3.708430e+04, 2.591821e+12
3.712138e+04, 2.738270e+12
3.715851e+04, 2.707869e+12
3.719566e+04, 2.718184e+12
3.723286e+04, 2.712495e+12
3.727009e+04, 2.716854e+12
3.730736e+04, 2.699007e+12
3.734467e+04, 2.514969e+12
3.738202e+04, 2.613533e+12
3.741940e+04, 2.660199e+12
3.745682e+04, 2.661436e+12
3.749427e+04, 2.674377e+12
3.753177e+04, 2.664198e+12
3.756930e+04, 2.641577e+12
3.760687e+04, 2.626131e+12
3.764448e+04, 2.553290e+12
3.768212e+04, 2.560400e+12
3.771980e+04, 2.562760e+12
3.775752e+04, 2.534112e+12
3.779528e+04, 2.522407e+12
3.783307e+04, 2.555935e+12
3.787091e+04, 2.590077e+12
3.790878e+04, 2.580472e+12
3.794669e+04, 2.572555e+12
3.798463e+04, 2.551395e+12
3.802262e+04, 2.569211e+12
3.806064e+04, 2.517815e+12
3.809870e+04, 2.457860e+12
3.813680e+04, 2.397103e+12
3.817494e+04, 2.517971e+12
3.821311e+04, 2.516978e+12
3.825133e+04, 2.499633e+12
3.828958e+04, 2.483640e+12
3.832787e+04, 2.437457e+12
3.836619e+04, 2.395541e+12
3.840456e+04, 2.413598e+12
3.844297e+04, 2.472531e+12
3.848141e+04, 2.417536e+12
3.851989e+04, 2.396920e+12
3.855841e+04, 2.383411e+12
3.859697e+04, 2.411168e+12
3.863556e+04, 2.401224e+12
3.867420e+04, 2.357613e+12
3.871287e+04, 2.390165e+12
3.875159e+04, 2.392707e+12
3.879034e+04, 2.386768e+12
3.882913e+04, 2.401941e+12
3.886796e+04, 2.358819e+12
3.890683e+04, 2.346766e+12
3.894573e+04, 2.237905e+12
3.898468e+04, 2.305446e+12
3.902366e+04, 2.340160e+12
3.906269e+04, 2.296138e+12
3.910175e+04, 2.231793e+12
3.914085e+04, 2.269266e+12
3.917999e+04, 2.317333e+12
3.921917e+04, 2.299780e+12
3.925839e+04, 2.302346e+12
3.929765e+04, 2.273328e+12
3.933695e+04, 2.223152e+12
3.937628e+04, 2.218472e+12
3.941566e+04, 2.263805e+12
3.945508e+04, 2.259090e+12
3.949453e+04, 2.239029e+12
3.953403e+04, 2.212314e+12
3.957356e+04, 2.225102e+12
3.961313e+04, 2.228166e+12
3.965275e+04, 2.209367e+12
3.969240e+04, 2.202871e+12
3.973209e+04, 2.191905e+12
3.977182e+04, 2.159583e+12
3.981160e+04, 2.055261e+12
3.985141e+04, 2.077966e+12
3.989126e+04, 2.112864e+12
3.993115e+04, 2.127839e+12
3.997108e+04, 2.137076e+12
4.001105e+04, 2.135630e+12
4.005106e+04, 2.120320e+12
4.009111e+04, 2.113450e+12
4.013121e+04, 2.109627e+12
4.017134e+04, 2.061036e+12
4.021151e+04, 2.007368e+12
4.025172e+04, 2.080081e+12
4.029197e+04, 2.076451e+12
4.033226e+04, 2.075138e+12
4.037260e+04, 2.072418e+12
4.041297e+04, 2.033386e+12
4.045338e+04, 1.954195e+12
4.049383e+04, 2.012038e+12
4.053433e+04, 2.007708e+12
4.057486e+04, 2.001534e+12
4.061544e+04, 1.980535e+12
4.065605e+04, 2.001400e+12
4.069671e+04, 1.931187e+12
4.073741e+04, 1.915667e+12
4.077814e+04, 1.942825e+12
4.081892e+04, 1.954692e+12
4.085974e+04, 1.913909e+12
4.090060e+04, 1.926712e+12
4.094150e+04, 1.935743e+12
4.098244e+04, 1.929821e+12
4.102342e+04, 1.933776e+12
4.106445e+04, 1.915584e+12
4.110551e+04, 1.841537e+12
4.114662e+04, 1.901658e+12
4.118776e+04, 1.889459e+12
4.122895e+04, 1.885708e+12
4.127018e+04, 1.872798e+12
4.131145e+04, 1.851337e+12
4.135276e+04, 1.864752e+12
4.139412e+04, 1.825199e+12
4.143551e+04, 1.852226e+12
4.147695e+04, 1.855569e+12
4.151842e+04, 1.855796e+12
4.155994e+04, 1.814303e+12
4.160150e+04, 1.782383e+12
4.164310e+04, 1.800825e+12
4.168475e+04, 1.731470e+12
4.172643e+04, 1.777766e+12
4.176816e+04, 1.800844e+12
4.180992e+04, 1.799488e+12
4.185173e+04, 1.756724e+12
4.189359e+04, 1.781957e+12
4.193548e+04, 1.765834e+12
4.197742e+04, 1.767544e+12
4.201939e+04, 1.721969e+12
4.206141e+04, 1.731514e+12
4.210347e+04, 1.728765e+12
4.214558e+04, 1.720465e+12
4.218772e+04, 1.716268e+12
4.222991e+04, 1.707034e+12
4.227214e+04, 1.723181e+12
4.231441e+04, 1.727755e+12
4.235673e+04, 1.723909e+12
4.239908e+04, 1.706779e+12
4.244148e+04, 1.697546e+12
4.248392e+04, 1.668672e+12
4.252641e+04, 1.632783e+12
4.256893e+04, 1.673034e+12
4.261150e+04, 1.664013e+12
4.265411e+04, 1.660090e+12
4.269677e+04, 1.627426e+12
4.273947e+04, 1.612216e+12
4.278221e+04, 1.663695e+12
4.282499e+04, 1.640544e+12
4.286781e+04, 1.647572e+12
4.291068e+04, 1.630796e+12
4.295359e+04, 1.513839e+12
4.299654e+04, 1.527649e+12
4.303954e+04, 1.508878e+12
4.308258e+04, 1.546428e+12
4.312566e+04, 1.544478e+12
4.316879e+04, 1.543345e+12
4.321196e+04, 1.548301e+12
4.325517e+04, 1.533896e+12
4.329842e+04, 1.527456e+12
4.334172e+04, 1.541564e+12
4.338506e+04, 1.508780e+12
4.342845e+04, 1.500907e+12
4.347188e+04, 1.502422e+12
4.351535e+04, 1.426898e+12
4.355887e+04, 1.437262e+12
4.360242e+04, 1.464330e+12
4.364603e+04, 1.460645e+12
4.368967e+04, 1.424625e+12
4.373336e+04, 1.437654e+12
4.377710e+04, 1.419115e+12
4.382087e+04, 1.418818e+12
4.386469e+04, 1.426056e+12
4.390856e+04, 1.450168e+12
4.395247e+04, 1.403522e+12
4.399642e+04, 1.416504e+12
4.404042e+04, 1.384625e+12
4.408446e+04, 1.324183e+12
4.412854e+04, 1.350916e+12
4.417267e+04, 1.354220e+12
4.421684e+04, 1.361599e+12
4.426106e+04, 1.349371e+12
4.430532e+04, 1.347107e+12
4.434963e+04, 1.310484e+12
4.439398e+04, 1.318958e+12
4.443837e+04, 1.352740e+12
4.448281e+04, 1.319134e+12
4.452729e+04, 1.339978e+12
4.457182e+04, 1.302835e+12
4.461639e+04, 1.327743e+12
4.466101e+04, 1.260460e+12
4.470567e+04, 1.273331e+12
4.475037e+04, 1.308568e+12
4.479512e+04, 1.244703e+12
4.483992e+04, 1.295299e+12
4.488476e+04, 1.266599e+12
4.492964e+04, 1.263079e+12
4.497457e+04, 1.274433e+12
4.501955e+04, 1.265715e+12
4.506457e+04, 1.237764e+12
4.510963e+04, 1.243694e+12
4.515474e+04, 1.247130e+12
4.519990e+04, 1.214342e+12
4.524510e+04, 1.232814e+12
4.529034e+04, 1.229199e+12
4.533563e+04, 1.186332e+12
4.538097e+04, 1.218837e+12
4.542635e+04, 1.229525e+12
4.547177e+04, 1.204171e+12
4.551725e+04, 1.179844e+12
4.556276e+04, 1.211052e+12
4.560833e+04, 1.190756e+12
4.565393e+04, 1.179950e+12
4.569959e+04, 1.188452e+12
4.574529e+04, 1.169490e+12
4.579103e+04, 1.193510e+12
4.583682e+04, 1.167981e+12
4.588266e+04, 1.131897e+12
4.592854e+04, 1.177742e+12
4.597447e+04, 1.148292e+12
4.602045e+04, 1.150957e+12
4.606647e+04, 1.160215e+12
4.611253e+04, 1.155073e+12
4.615865e+04, 1.103828e+12
4.620480e+04, 1.158214e+12
4.625101e+04, 1.098562e+12
4.629726e+04, 1.162014e+12
4.634356e+04, 1.139574e+12
4.638990e+04, 1.100470e+12
4.643629e+04, 1.136373e+12
4.648273e+04, 1.110055e+12
4.652921e+04, 1.114506e+12
4.657574e+04, 1.130125e+12
4.662231e+04, 1.095801e+12
4.666894e+04, 1.093360e+12
4.671561e+04, 1.113035e+12
4.676232e+04, 1.104740e+12
4.680908e+04, 1.070524e+12
4.685589e+04, 1.110336e+12
4.690275e+04, 1.068719e+12
4.694965e+04, 1.110675e+12
4.699660e+04, 1.066155e+12
4.704360e+04, 1.084267e+12
4.709064e+04, 1.058400e+12
4.713773e+04, 1.074947e+12
4.718487e+04, 1.049679e+12
4.723205e+04, 1.088356e+12
4.727929e+04, 1.042007e+12
4.732657e+04, 1.045879e+12
4.737389e+04, 1.050676e+12
4.742127e+04, 1.057733e+12
4.746869e+04, 1.047633e+12
4.751616e+04, 1.038127e+12
4.756367e+04, 1.028470e+12
4.761124e+04, 1.027456e+12
4.765885e+04, 1.014013e+12
4.770651e+04, 1.041584e+12
4.775421e+04, 1.014019e+12
4.780197e+04, 1.010675e+12
4.784977e+04, 9.914007e+11
4.789762e+04, 1.045845e+12
4.794552e+04, 9.670372e+11
4.799346e+04, 1.023569e+12
4.804146e+04, 9.891048e+11
4.808950e+04, 1.003766e+12
4.813759e+04, 9.623211e+11
4.818572e+04, 1.003890e+12
4.823391e+04, 9.921383e+11
4.828214e+04, 1.012499e+12
4.833043e+04, 9.623985e+11
4.837876e+04, 9.785710e+11
4.842713e+04, 9.650722e+11
4.847556e+04, 9.876381e+11
4.852404e+04, 9.571739e+11
4.857256e+04, 9.733314e+11
4.862113e+04, 9.625443e+11
4.866976e+04, 9.573458e+11
4.871842e+04, 9.308966e+11
4.876714e+04, 9.285359e+11
4.881591e+04, 9.713513e+11
4.886473e+04, 9.340341e+11
4.891359e+04, 9.496187e+11
4.896250e+04, 9.054692e+11
4.901147e+04, 9.555807e+11
4.906048e+04, 9.321740e+11
4.910954e+04, 9.257427e+11
4.915865e+04, 9.257259e+11
4.920781e+04, 9.262884e+11
4.925702e+04, 8.951062e+11
4.930627e+04, 9.120521e+11
4.935558e+04, 8.891968e+11
4.940493e+04, 9.340214e+11
4.945434e+04, 9.050257e+11
4.950379e+04, 8.845941e+11
4.955330e+04, 8.776224e+11
4.960285e+04, 8.786164e+11
4.965245e+04, 9.030432e+11
4.970211e+04, 8.559185e+11
4.975181e+04, 9.129007e+11
4.980156e+04, 8.714417e+11
4.985136e+04, 8.957272e+11
4.990121e+04, 8.516866e+11
4.995111e+04, 8.716173e+11
5.000106e+04, 8.458820e+11
5.005107e+04, 8.727032e+11
5.010112e+04, 8.461184e+11
5.015122e+04, 8.534521e+11
5.020137e+04, 8.248301e+11
5.025157e+04, 8.358732e+11
5.030182e+04, 8.329699e+11
5.035212e+04, 8.494148e+11
5.040248e+04, 8.345949e+11
5.045288e+04, 8.192837e+11
5.050333e+04, 8.722517e+11
5.055383e+04, 8.134043e+11
5.060439e+04, 8.243168e+11
5.065499e+04, 8.031966e+11
5.070565e+04, 8.415552e+11
5.075635e+04, 8.228825e+11
5.080711e+04, 7.900212e+11
5.085792e+04, 8.211295e+11
5.090878e+04, 7.941186e+11
5.095968e+04, 8.055625e+11
5.101064e+04, 8.178341e+11
5.106165e+04, 7.865795e+11
5.111272e+04, 7.947225e+11
5.116383e+04, 8.031221e+11
5.121499e+04, 7.800664e+11
5.126621e+04, 7.860561e+11
5.131747e+04, 7.637782e+11
5.136879e+04, 8.036525e+11
5.142016e+04, 7.813674e+11
5.147158e+04, 7.421584e+11
5.152305e+04, 8.050641e+11
5.157457e+04, 7.637662e+11
5.162615e+04, 7.580935e+11
5.167778e+04, 7.536082e+11
5.172945e+04, 7.548185e+11
5.178118e+04, 7.701856e+11
5.183296e+04, 7.579010e+11
5.188480e+04, 7.620914e+11
5.193668e+04, 7.551031e+11
5.198862e+04, 7.249435e+11
5.204061e+04, 7.415160e+11
5.209265e+04, 7.632288e+11
5.214474e+04, 7.406294e+11
5.219688e+04, 7.394555e+11
5.224908e+04, 7.267457e+11
5.230133e+04, 7.283355e+11
5.235363e+04, 7.391766e+11
5.240599e+04, 7.072295e+11
5.245839e+04, 7.254129e+11
5.251085e+04, 7.196131e+11
5.256336e+04, 7.139556e+11
5.261592e+04, 7.420332e+11
5.266854e+04, 7.107536e+11
5.272121e+04, 7.050296e+11
5.277393e+04, 7.106100e+11
5.282670e+04, 6.880474e+11
5.287953e+04, 7.141741e+11
5.293241e+04, 6.952612e+11
5.298534e+04, 6.922809e+11
5.303833e+04, 7.131210e+11
5.309137e+04, 6.708453e+11
5.314446e+04, 7.022668e+11
5.319760e+04, 6.732730e+11
5.325080e+04, 6.837919e+11
5.330405e+04, 6.879502e+11
5.335735e+04, 6.924711e+11
5.341071e+04, 6.710292e+11
5.346412e+04, 6.707573e+11
5.351759e+04, 6.649082e+11
5.357110e+04, 6.821694e+11
5.362468e+04, 6.699953e+11
5.367830e+04, 6.624677e+11
5.373198e+04, 6.734880e+11
5.378571e+04, 6.552137e+11
5.383950e+04, 6.675759e+11
5.389334e+04, 6.532797e+11
5.394723e+04, 6.551763e+11
5.400118e+04, 6.642028e+11
5.405518e+04, 6.493514e+11
5.410923e+04, 6.311470e+11
5.416334e+04, 6.444760e+11
5.421751e+04, 6.361334e+11
5.427172e+04, 6.335989e+11
5.432599e+04, 6.380733e+11
5.438032e+04, 6.238347e+11
5.443470e+04, 6.461365e+11
5.448914e+04, 6.395110e+11
5.454362e+04, 6.193490e+11
5.459817e+04, 6.347267e+11
5.465277e+04, 6.201191e+11
5.470742e+04, 6.213138e+11
5.476213e+04, 6.197768e+11
5.481689e+04, 6.232664e+11
5.487171e+04, 6.245413e+11
5.492658e+04, 6.088798e+11
5.498150e+04, 6.175185e+11
5.503649e+04, 6.223605e+11
5.509152e+04, 5.995163e+11
5.514661e+04, 6.081656e+11
5.520176e+04, 6.120696e+11
5.525696e+04, 5.863829e+11
5.531222e+04, 5.885332e+11
5.536753e+04, 6.186777e+11
5.542290e+04, 5.914165e+11
5.547832e+04, 5.831352e+11
5.553380e+04, 5.993724e+11
5.558933e+04, 5.871379e+11
5.564492e+04, 5.821219e+11
5.570057e+04, 5.903237e+11
5.575627e+04, 5.840962e+11
5.581202e+04, 5.723582e+11
5.586784e+04, 5.776760e+11
5.592370e+04, 5.858069e+11
5.597963e+04, 5.881588e+11
5.603561e+04, 5.730191e+11
5.609164e+04, 5.751636e+11
5.614774e+04, 5.702697e+11
5.620388e+04, 5.582301e+11
5.626009e+04, 5.707025e+11
5.631635e+04, 5.613011e+11
5.637266e+04, 5.668234e+11
5.642904e+04, 5.595594e+11
5.648546e+04, 5.606797e+11
5.654195e+04, 5.522328e+11
5.659849e+04, 5.559336e+11
5.665509e+04, 5.487077e+11
5.671175e+04, 5.642781e+11
5.676846e+04, 5.410687e+11
5.682523e+04, 5.422125e+11
5.688205e+04, 5.471981e+11
5.693893e+04, 5.337009e+11
5.699587e+04, 5.465530e+11
5.705287e+04, 5.530965e+11
5.710992e+04, 5.332739e+11
5.716703e+04, 5.240717e+11
5.722420e+04, 5.321234e+11
5.728142e+04, 5.314651e+11
5.733870e+04, 5.144793e+11
5.739604e+04, 5.300566e+11
5.745344e+04, 5.364449e+11
5.751089e+04, 5.307171e+11
5.756840e+04, 5.246965e+11
5.762597e+04, 5.212667e+11
5.768360e+04, 5.244230e+11
5.774128e+04, 5.187411e+11
5.779902e+04, 5.111513e+11
5.785682e+04, 5.189244e+11
5.791468e+04, 5.161203e+11
5.797259e+04, 5.014103e+11
5.803056e+04, 5.223775e+11
5.808860e+04, 5.188854e+11
5.814668e+04, 5.009956e+11
5.820483e+04, 5.010302e+11
5.826304e+04, 5.080279e+11
5.832130e+04, 4.933156e+11
5.837962e+04, 4.957602e+11
5.843800e+04, 5.001477e+11
5.849644e+04, 4.967448e+11
5.855493e+04, 4.894743e+11
5.861349e+04, 5.043066e+11
5.867210e+04, 5.022243e+11
5.873077e+04, 4.833215e+11
5.878951e+04, 4.893939e+11
5.884829e+04, 4.870517e+11
5.890714e+04, 5.005184e+11
5.896605e+04, 4.768045e+11
5.902502e+04, 4.715571e+11
5.908404e+04, 4.845413e+11
5.914313e+04, 4.820278e+11
5.920227e+04, 4.792298e+11
5.926147e+04, 4.860217e+11
5.932073e+04, 4.784447e+11
5.938005e+04, 4.709541e+11
5.943943e+04, 4.723673e+11
5.949887e+04, 4.685357e+11
5.955837e+04, 4.751781e+11
5.961793e+04, 4.651576e+11
5.967755e+04, 4.578557e+11
5.973723e+04, 4.702355e+11
5.979696e+04, 4.625948e+11
5.985676e+04, 4.607847e+11
5.991662e+04, 4.583227e+11
5.997653e+04, 4.615131e+11
6.003651e+04, 4.616848e+11
6.009655e+04, 4.649630e+11
6.015664e+04, 4.548399e+11
6.021680e+04, 4.483300e+11
6.027702e+04, 4.578922e+11
6.033729e+04, 4.425968e+11
6.039763e+04, 4.409524e+11
6.045803e+04, 4.410159e+11
6.051849e+04, 4.427612e+11
6.057900e+04, 4.456599e+11
6.063958e+04, 4.452111e+11
6.070022e+04, 4.459200e+11
6.076092e+04, 4.425227e+11
6.082168e+04, 4.427307e+11
6.088251e+04, 4.372401e+11
6.094339e+04, 4.418336e+11
6.100433e+04, 4.288185e+11
6.106534e+04, 4.333391e+11
6.112640e+04, 4.209230e+11
6.118753e+04, 4.283861e+11
6.124872e+04, 4.307865e+11
6.130996e+04, 4.342546e+11
6.137127e+04, 4.335645e+11
6.143265e+04, 4.222821e+11
6.149408e+04, 4.244275e+11
6.155557e+04, 4.242881e+11
6.161713e+04, 4.206158e+11
6.167874e+04, 4.234059e+11
6.174042e+04, 4.095076e+11
6.180216e+04, 4.194408e+11
6.186397e+04, 4.131154e+11
6.192583e+04, 4.146825e+11
6.198776e+04, 4.113470e+11
6.204974e+04, 4.119637e+11
6.211179e+04, 4.145495e+11
6.217390e+04, 4.045851e+11
6.223608e+04, 4.097246e+11
6.229831e+04, 4.129732e+11
6.236061e+04, 4.065342e+11
6.242297e+04, 3.944346e+11
6.248540e+04, 3.978250e+11
6.254788e+04, 4.031431e+11
6.261043e+04, 3.952132e+11
6.267304e+04, 3.977658e+11
6.273571e+04, 3.921968e+11
6.279845e+04, 3.928552e+11
6.286125e+04, 4.008915e+11
6.292411e+04, 3.861856e+11
6.298703e+04, 3.876753e+11
6.305002e+04, 3.934719e+11
6.311307e+04, 3.883190e+11
6.317618e+04, 3.820657e+11
6.323936e+04, 3.842728e+11
6.330260e+04, 3.851286e+11
6.336590e+04, 3.793631e+11
6.342927e+04, 3.777287e+11
6.349270e+04, 3.773804e+11
6.355619e+04, 3.685895e+11
6.361975e+04, 3.769487e+11
6.368337e+04, 3.767029e+11
6.374705e+04, 3.737651e+11
6.381080e+04, 3.656522e+11
6.387461e+04, 3.623588e+11
6.393848e+04, 3.698854e+11
6.400242e+04, 3.695865e+11
6.406642e+04, 3.574227e+11
6.413049e+04, 3.556626e+11
6.419462e+04, 3.559517e+11
6.425881e+04, 3.636408e+11
6.432307e+04, 3.520187e+11
6.438740e+04, 3.520490e+11
6.445178e+04, 3.546380e+11
6.451623e+04, 3.439521e+11
6.458075e+04, 3.453916e+11
6.464533e+04, 3.479292e+11
6.470998e+04, 3.270765e+11
6.477469e+04, 3.297517e+11
6.483946e+04, 3.305505e+11
6.490430e+04, 3.382032e+11
6.496921e+04, 3.297269e+11
6.503417e+04, 3.243117e+11
6.509921e+04, 3.381645e+11
6.516431e+04, 3.233947e+11
6.522947e+04, 3.283617e+11
6.529470e+04, 3.206169e+11
6.536000e+04, 3.228980e+11
6.542536e+04, 3.171285e+11
6.549078e+04, 3.188418e+11
6.555627e+04, 3.167421e+11
6.562183e+04, 3.112158e+11
6.568745e+04, 3.073442e+11
6.575314e+04, 3.095020e+11
6.581889e+04, 3.156959e+11
6.588471e+04, 3.107968e+11
6.595059e+04, 2.926183e+11
6.601655e+04, 3.020327e+11
6.608256e+04, 3.109171e+11
6.614864e+04, 3.021275e+11
6.621479e+04, 2.911461e+11
6.628101e+04, 2.941347e+11
6.634729e+04, 2.921853e+11
6.641364e+04, 2.920806e+11
6.648005e+04, 3.001430e+11
6.654653e+04, 2.898414e+11
6.661308e+04, 2.930293e+11
6.667969e+04, 2.917813e+11
6.674637e+04, 2.928752e+11
6.681312e+04, 2.833600e+11
6.687993e+04, 2.813305e+11
6.694681e+04, 2.843500e+11
6.701376e+04, 2.899837e+11
6.708077e+04, 2.898170e+11
6.714785e+04, 2.858876e+11
6.721500e+04, 2.848868e+11
6.728221e+04, 2.811383e+11
6.734949e+04, 2.843947e+11
6.741684e+04, 2.820759e+11
6.748426e+04, 2.743224e+11
6.755175e+04, 2.797108e+11
6.761930e+04, 2.755706e+11
6.768692e+04, 2.718671e+11
6.775460e+04, 2.728555e+11
6.782236e+04, 2.674287e+11
6.789018e+04, 2.694331e+11
6.795807e+04, 2.692737e+11
6.802603e+04, 2.750701e+11
6.809405e+04, 2.693495e+11
6.816215e+04, 2.595712e+11
6.823031e+04, 2.670478e+11
6.829854e+04, 2.640691e+11
6.836684e+04, 2.594367e+11
6.843521e+04, 2.710997e+11
6.850364e+04, 2.651933e+11
6.857215e+04, 2.576556e+11
6.864072e+04, 2.607669e+11
6.870936e+04, 2.586594e+11
6.877807e+04, 2.628670e+11
6.884685e+04, 2.550479e+11
6.891569e+04, 2.577296e+11
6.898461e+04, 2.593323e+11
6.905359e+04, 2.499820e+11
6.912265e+04, 2.559830e+11
6.919177e+04, 2.503703e+11
6.926096e+04, 2.506919e+11
6.933022e+04, 2.538057e+11
6.939955e+04, 2.497225e+11
6.946895e+04, 2.504646e+11
6.953842e+04, 2.467564e+11
6.960796e+04, 2.487215e+11
6.967757e+04, 2.437400e+11
6.974724e+04, 2.473742e+11
6.981699e+04, 2.430301e+11
6.988681e+04, 2.480887e+11
6.995670e+04, 2.500095e+11
7.002665e+04, 2.396040e+11
7.009668e+04, 2.364160e+11
7.016678e+04, 2.404531e+11
7.023694e+04, 2.382840e+11
7.030718e+04, 2.359077e+11
7.037749e+04, 2.458408e+11
7.044786e+04, 2.380238e+11
7.051831e+04, 2.332483e+11
7.058883e+04, 2.401631e+11
7.065942e+04, 2.374321e+11
7.073008e+04, 2.320831e+11
7.080081e+04, 2.309784e+11
7.087161e+04, 2.334711e+11
7.094248e+04, 2.293888e+11
7.101342e+04, 2.295825e+11
7.108444e+04, 2.276698e+11
7.115552e+04, 2.302546e+11
7.122668e+04, 2.262493e+11
7.129790e+04, 2.293426e+11
7.136920e+04, 2.259792e+11
7.144057e+04, 2.246466e+11
7.151201e+04, 2.233503e+11
7.158352e+04, 2.301551e+11
7.165511e+04, 2.274143e+11
7.172676e+04, 2.235548e+11
7.179849e+04, 2.220214e+11
7.187029e+04, 2.223918e+11
7.194216e+04, 2.209589e+11
7.201410e+04, 2.201920e+11
7.208611e+04, 2.182119e+11
7.215820e+04, 2.178541e+11
7.223036e+04, 2.165288e+11
7.230259e+04, 2.172124e+11
7.237489e+04, 2.155839e+11
7.244727e+04, 2.158770e+11
7.251971e+04, 2.165365e+11
7.259223e+04, 2.127060e+11
7.266482e+04, 2.160187e+11
7.273749e+04, 2.081247e+11
7.281023e+04, 2.126758e+11
7.288304e+04, 2.129676e+11
7.295592e+04, 2.073915e+11
7.302888e+04, 2.078090e+11
7.310191e+04, 2.102197e+11
7.317501e+04, 2.101627e+11
7.324818e+04, 2.079847e+11
7.332143e+04, 2.038688e+11
7.339475e+04, 2.035008e+11
7.346815e+04, 2.024827e+11
7.354161e+04, 2.036148e+11
7.361516e+04, 2.022045e+11
7.368877e+04, 2.024786e+11
7.376246e+04, 1.996966e+11
7.383622e+04, 2.014354e+11
7.391006e+04, 2.047328e+11
7.398397e+04, 2.021456e+11
7.405795e+04, 2.003805e+11
7.413201e+04, 1.975334e+11
7.420614e+04, 1.965446e+11
7.428035e+04, 1.953956e+11
7.435463e+04, 1.918917e+11
7.442898e+04, 1.939749e+11
7.450341e+04, 1.965986e+11
7.457792e+04, 1.955640e+11
7.465249e+04, 1.938663e+11
7.472715e+04, 1.947837e+11
7.480187e+04, 1.937315e+11
7.487668e+04, 1.977127e+11
7.495155e+04, 1.871462e+11
7.502650e+04, 1.889413e+11
7.510153e+04, 1.921446e+11
7.517663e+04, 1.882762e+11
7.525181e+04, 1.868944e+11
7.532706e+04, 1.838974e+11
7.540239e+04, 1.851170e+11
7.547779e+04, 1.866099e+11
7.555327e+04, 1.873910e+11
7.562882e+04, 1.888556e+11
7.570445e+04, 1.807412e+11
7.578015e+04, 1.804430e+11
7.585593e+04, 1.783618e+11
7.593179e+04, 1.837145e+11
7.600772e+04, 1.747221e+11
7.608373e+04, 1.776929e+11
7.615981e+04, 1.747912e+11
7.623597e+04, 1.789758e+11
7.631221e+04, 1.728362e+11
7.638852e+04, 1.767961e+11
7.646491e+04, 1.750920e+11
7.654138e+04, 1.755603e+11
7.661792e+04, 1.723470e+11
7.669453e+04, 1.713558e+11
7.677123e+04, 1.734011e+11
7.684800e+04, 1.741989e+11
7.692485e+04, 1.708145e+11
7.700177e+04, 1.719875e+11
7.707877e+04, 1.693935e+11
7.715585e+04, 1.687948e+11
7.723301e+04, 1.679968e+11
7.731024e+04, 1.672650e+11
7.738755e+04, 1.631560e+11
7.746494e+04, 1.635480e+11
7.754241e+04, 1.666409e+11
7.761995e+04, 1.638107e+11
7.769757e+04, 1.622603e+11
7.777527e+04, 1.656348e+11
7.785304e+04, 1.617707e+11
7.793089e+04, 1.624694e+11
7.800882e+04, 1.577249e+11
7.808683e+04, 1.592901e+11
7.816492e+04, 1.604864e+11
7.824308e+04, 1.620876e+11
7.832133e+04, 1.582793e+11
7.839965e+04, 1.612322e+11
7.847805e+04, 1.608083e+11
7.855653e+04, 1.544905e+11
7.863508e+04, 1.554252e+11
7.871372e+04, 1.528993e+11
7.879243e+04, 1.552417e+11
7.887122e+04, 1.524975e+11
7.895010e+04, 1.503327e+11
7.902905e+04, 1.524722e+11
7.910808e+04, 1.521182e+11
7.918718e+04, 1.527702e+11
7.926637e+04, 1.499613e+11
7.934564e+04, 1.530116e+11
7.942498e+04, 1.505933e+11
7.950441e+04, 1.500311e+11
7.958391e+04, 1.490563e+11
7.966350e+04, 1.468928e+11
7.974316e+04, 1.466531e+11
7.982290e+04, 1.439283e+11
7.990273e+04, 1.457136e+11
7.998263e+04, 1.474460e+11
8.006261e+04, 1.455548e+11
8.014267e+04, 1.454018e+11
8.022282e+04, 1.427718e+11
8.030304e+04, 1.478356e+11
8.038334e+04, 1.423897e+11
8.046373e+04, 1.419766e+11
8.054419e+04, 1.421383e+11
8.062473e+04, 1.422783e+11
8.070536e+04, 1.409507e+11
8.078606e+04, 1.396280e+11
8.086685e+04, 1.422083e+11
8.094772e+04, 1.386237e+11
8.102866e+04, 1.367239e+11
8.110969e+04, 1.380315e+11
8.119080e+04, 1.377286e+11
8.127199e+04, 1.368662e+11
8.135326e+04, 1.388702e+11
8.143462e+04, 1.386238e+11
8.151605e+04, 1.363553e+11
8.159757e+04, 1.332153e+11
8.167917e+04, 1.369841e+11
8.176085e+04, 1.365804e+11
8.184261e+04, 1.348029e+11
8.192445e+04, 1.336015e+11
8.200637e+04, 1.304993e+11
8.208838e+04, 1.306087e+11
8.217047e+04, 1.324780e+11
8.225264e+04, 1.315067e+11
8.233489e+04, 1.306175e+11
8.241723e+04, 1.310953e+11
8.249964e+04, 1.321580e+11
8.258214e+04, 1.327291e+11
8.266473e+04, 1.283433e+11
8.274739e+04, 1.291631e+11
8.283014e+04, 1.254589e+11
8.291297e+04, 1.292963e+11
8.299588e+04, 1.274562e+11
8.307888e+04, 1.280515e+11
8.316196e+04, 1.261294e+11
8.324512e+04, 1.243375e+11
8.332836e+04, 1.232732e+11
8.341169e+04, 1.257156e+11
8.349510e+04, 1.238938e+11
8.357860e+04, 1.243404e+11
8.366218e+04, 1.241308e+11
8.374584e+04, 1.206320e+11
8.382958e+04, 1.207998e+11
8.391341e+04, 1.210364e+11
8.399733e+04, 1.224716e+11
8.408132e+04, 1.223745e+11
8.416541e+04, 1.237800e+11
8.424957e+04, 1.200098e+11
8.433382e+04, 1.202216e+11
8.441815e+04, 1.202674e+11
8.450257e+04, 1.191846e+11
8.458708e+04, 1.174593e+11
8.467166e+04, 1.189949e+11
8.475633e+04, 1.189719e+11
8.484109e+04, 1.170261e+11
8.492593e+04, 1.160717e+11
8.501086e+04, 1.139388e+11
8.509587e+04, 1.174263e+11
8.518096e+04, 1.151355e+11
8.526614e+04, 1.182736e+11
8.535141e+04, 1.137885e+11
8.543676e+04, 1.140386e+11
8.552220e+04, 1.138136e+11
8.560772e+04, 1.123873e+11
8.569333e+04, 1.123884e+11
8.577902e+04, 1.138195e+11
8.586480e+04, 1.121451e+11
8.595067e+04, 1.124273e+11
8.603662e+04, 1.127130e+11
8.612265e+04, 1.118310e+11
8.620878e+04, 1.092270e+11
8.629499e+04, 1.101615e+11
8.638128e+04, 1.121060e+11
8.646766e+04, 1.097152e+11
8.655413e+04, 1.090882e+11
8.664068e+04, 1.102786e+11
8.672732e+04, 1.077053e+11
8.681405e+04, 1.056509e+11
8.690087e+04, 1.094025e+11
8.698777e+04, 1.117146e+11
8.707475e+04, 1.059254e+11
8.716183e+04, 1.054719e+11
8.724899e+04, 1.060973e+11
8.733624e+04, 1.044012e+11
8.742358e+04, 1.052635e+11
8.751100e+04, 1.041993e+11
8.759851e+04, 1.020077e+11
8.768611e+04, 1.033724e+11
8.777379e+04, 1.049538e+11
8.786157e+04, 1.029984e+11
8.794943e+04, 1.038213e+11
8.803738e+04, 1.008108e+11
8.812542e+04, 1.023003e+11
8.821354e+04, 1.011541e+11
8.830176e+04, 1.021188e+11
8.839006e+04, 1.008222e+11
8.847845e+04, 1.022997e+11
8.856693e+04, 9.934388e+10
8.865549e+04, 1.000650e+11
8.874415e+04, 1.008963e+11
8.883289e+04, 1.002917e+11
8.892173e+04, 9.845809e+10
8.901065e+04, 9.983298e+10
8.909966e+04, 9.790581e+10
8.918876e+04, 9.777703e+10
8.927795e+04, 9.913517e+10
8.936722e+04, 9.805793e+10
8.945659e+04, 9.556166e+10
8.954605e+04, 9.674136e+10
8.963559e+04, 9.636871e+10
8.972523e+04, 9.539466e+10
8.981496e+04, 9.424155e+10
8.990477e+04, 9.680743e+10
8.999467e+04, 9.504874e+10
9.008467e+04, 9.610252e+10
9.017475e+04, 9.402084e+10
9.026493e+04, 9.458112e+10
9.035519e+04, 9.345596e+10
9.044555e+04, 9.464957e+10
9.053599e+04, 9.415295e+10
9.062653e+04, 9.190687e+10
9.071716e+04, 9.299589e+10
9.080787e+04, 9.308732e+10
9.089868e+04, 9.077593e+10
9.098958e+04, 9.280518e+10
9.108057e+04, 9.052808e+10
9.117165e+04, 9.135057e+10
9.126282e+04, 9.009356e+10
9.135409e+04, 8.985527e+10
9.144544e+04, 9.104676e+10
9.153688e+04, 8.825463e+10
9.162842e+04, 9.050474e+10
9.172005e+04, 8.775767e+10
9.181177e+04, 8.952133e+10
9.190358e+04, 8.834141e+10
9.199549e+04, 8.697112e+10
9.208748e+04, 8.804559e+10
9.217957e+04, 8.771695e+10
9.227175e+04, 8.717302e+10
9.236402e+04, 8.733282e+10
9.245638e+04, 8.637888e+10
9.254884e+04, 8.494506e+10
9.264139e+04, 8.528607e+10
9.273403e+04, 8.536961e+10
9.282676e+04, 8.522509e+10
9.291959e+04, 8.451384e+10
9.301251e+04, 8.396121e+10
9.310552e+04, 8.489734e+10
9.319863e+04, 8.313892e+10
9.329183e+04, 8.273236e+10
9.338512e+04, 8.264849e+10
9.347850e+04, 8.377761e+10
9.357198e+04, 8.335554e+10
9.366556e+04, 8.335322e+10
9.375922e+04, 8.158392e+10
9.385298e+04, 8.192569e+10
9.394683e+04, 8.049135e+10
9.404078e+04, 8.079161e+10
9.413482e+04, 8.045254e+10
9.422896e+04, 8.069528e+10
9.432318e+04, 8.114185e+10
9.441751e+04, 7.828325e+10
9.451192e+04, 8.037128e+10
9.460644e+04, 7.902574e+10
9.470104e+04, 7.956475e+10
9.479574e+04, 7.852248e+10
9.489054e+04, 7.935581e+10
9.498543e+04, 7.780992e+10
9.508042e+04, 7.798652e+10
9.517550e+04, 7.750680e+10
9.527067e+04, 7.809007e+10
9.536594e+04, 7.753859e+10
9.546131e+04, 7.818097e+10
9.555677e+04, 7.683888e+10
9.565233e+04, 7.609159e+10
9.574798e+04, 7.605639e+10
9.584373e+04, 7.526269e+10
9.593957e+04, 7.528177e+10
9.603551e+04, 7.412073e+10
9.613155e+04, 7.507195e+10
9.622768e+04, 7.416105e+10
9.632390e+04, 7.411397e+10
9.642023e+04, 7.375838e+10
9.651665e+04, 7.408097e+10
9.661317e+04, 7.298136e+10
9.670978e+04, 7.277133e+10
9.680649e+04, 7.212620e+10
9.690330e+04, 7.354793e+10
9.700020e+04, 7.203214e+10
9.709720e+04, 7.245900e+10
9.719430e+04, 7.176536e+10
9.729149e+04, 7.189028e+10
9.738878e+04, 7.136466e+10
9.748617e+04, 7.166175e+10
9.758366e+04, 7.122030e+10
9.768124e+04, 7.119144e+10
9.777892e+04, 6.893513e+10
9.787670e+04, 6.964009e+10
9.797458e+04, 7.055717e+10
9.807255e+04, 7.000002e+10
9.817062e+04, 6.870146e+10
9.826879e+04, 6.896659e+10
9.836706e+04, 6.943124e+10
9.846543e+04, 6.874445e+10
9.856390e+04, 6.705404e+10
9.866246e+04, 6.846554e+10
9.876112e+04, 6.910675e+10
9.885988e+04, 6.574341e+10
9.895874e+04, 6.556469e+10
9.905770e+04, 6.673192e+10
9.915676e+04, 6.572467e+10
9.925592e+04, 6.484298e+10
9.935517e+04, 6.647839e+10
9.945453e+04, 6.668517e+10
9.955398e+04, 6.570449e+10
9.965354e+04, 6.527514e+10
9.975319e+04, 6.544943e+10
9.985294e+04, 6.460638e+10
9.995280e+04, 6.448925e+10
1.000527e+05, 6.478877e+10
1.001528e+05, 6.435979e+10
1.002530e+05, 6.444994e+10
1.003532e+05, 6.382124e+10
1.004536e+05, 6.441701e+10
1.005540e+05, 6.336274e+10
1.006546e+05, 6.136822e+10
1.007552e+05, 6.225596e+10
1.008560e+05, 6.156856e+10
1.009568e+05, 6.224977e+10
1.010578e+05, 6.192934e+10
1.011588e+05, 6.171193e+10
1.012600e+05, 6.203428e+10
1.013613e+05, 6.075984e+10
1.014626e+05, 6.113926e+10
1.015641e+05, 6.131470e+10
1.016657e+05, 6.160142e+10
1.017673e+05, 6.036743e+10
1.018691e+05, 5.975665e+10
1.019710e+05, 6.089855e+10
1.020729e+05, 5.979668e+10
1.021750e+05, 5.875219e+10
1.022772e+05, 5.911761e+10
1.023795e+05, 5.825724e+10
1.024818e+05, 5.883331e+10
1.025843e+05, 5.884741e+10
1.026869e+05, 5.870410e+10
1.027896e+05, 5.756751e+10
1.028924e+05, 5.800257e+10
1.029953e+05, 5.826011e+10
1.030983e+05, 5.749043e+10
1.032014e+05, 5.620799e+10
1.033046e+05, 5.686018e+10
1.034079e+05, 5.694558e+10
1.035113e+05, 5.702662e+10
1.036148e+05, 5.578214e+10
1.037184e+05, 5.615304e+10
1.038221e+05, 5.564450e+10
1.039259e+05, 5.586236e+10
1.040299e+05, 5.415612e+10
1.041339e+05, 5.555051e+10
1.042380e+05, 5.426944e+10
1.043423e+05, 5.388441e+10
1.044466e+05, 5.499922e+10
1.045511e+05, 5.421223e+10
1.046556e+05, 5.422427e+10
1.047603e+05, 5.297722e+10
1.048650e+05, 5.405150e+10
1.049699e+05, 5.393004e+10
1.050749e+05, 5.262006e+10
1.051799e+05, 5.317727e+10
1.052851e+05, 5.284573e+10
1.053904e+05, 5.301149e+10
1.054958e+05, 5.244761e+10
1.056013e+05, 5.212210e+10
1.057069e+05, 5.203994e+10
1.058126e+05, 5.196370e+10
1.059184e+05, 5.143483e+10
1.060243e+05, 5.026551e+10
1.061303e+05, 5.008934e+10
1.062365e+05, 5.208810e+10
1.063427e+05, 5.037123e+10
1.064491e+05, 5.146429e+10
1.065555e+05, 5.031578e+10
1.066621e+05, 5.074013e+10
1.067687e+05, 5.044631e+10
1.068755e+05, 4.916486e+10
1.069824e+05, 5.013623e+10
1.070894e+05, 4.837907e+10
1.071964e+05, 4.950046e+10
1.073036e+05, 4.889024e+10
1.074109e+05, 4.860121e+10
1.075184e+05, 4.803380e+10
1.076259e+05, 4.866013e+10
1.077335e+05, 4.870612e+10
1.078412e+05, 4.762296e+10
1.079491e+05, 4.737316e+10
1.080570e+05, 4.804374e+10
1.081651e+05, 4.729697e+10
1.082732e+05, 4.638673e+10
1.083815e+05, 4.827405e+10
1.084899e+05, 4.673295e+10
1.085984e+05, 4.743430e+10
1.087070e+05, 4.674959e+10
1.088157e+05, 4.627460e+10
1.089245e+05, 4.505457e+10
1.090334e+05, 4.547610e+10
1.091425e+05, 4.609836e+10
1.092516e+05, 4.588640e+10
1.093609e+05, 4.499043e+10
1.094702e+05, 4.521658e+10
1.095797e+05, 4.620946e+10
1.096893e+05, 4.461533e+10
1.097990e+05, 4.424321e+10
1.099088e+05, 4.402403e+10
1.100187e+05, 4.486567e+10
1.101287e+05, 4.447994e+10
1.102388e+05, 4.406867e+10
1.103491e+05, 4.454191e+10
1.104594e+05, 4.239520e+10
1.105699e+05, 4.235032e+10
1.106804e+05, 4.306525e+10
1.107911e+05, 4.294007e+10
1.109019e+05, 4.259802e+10
1.110128e+05, 4.355864e+10
1.111238e+05, 4.194642e+10
1.112349e+05, 4.287125e+10
1.113462e+05, 4.200279e+10
1.114575e+05, 4.342981e+10
1.115690e+05, 4.215335e+10
1.116806e+05, 4.208365e+10
1.117922e+05, 4.132766e+10
1.119040e+05, 4.164785e+10
1.120159e+05, 4.055261e+10
1.121279e+05, 4.116948e+10
1.122401e+05, 4.088408e+10
1.123523e+05, 4.099909e+10
1.124647e+05, 4.099793e+10
1.125771e+05, 4.053564e+10
1.126897e+05, 4.035360e+10
1.128024e+05, 4.074101e+10
1.129152e+05, 3.952420e+10
1.130281e+05, 3.918387e+10
1.131411e+05, 3.908007e+10
1.132543e+05, 3.925432e+10
1.133675e+05, 3.936137e+10
1.134809e+05, 3.982486e+10
1.135944e+05, 3.900525e+10
1.137080e+05, 3.882233e+10
1.138217e+05, 3.912067e+10
1.139355e+05, 3.853368e+10
1.140494e+05, 3.895858e+10
1.141635e+05, 3.960195e+10
1.142777e+05, 3.822985e+10
1.143919e+05, 3.763022e+10
1.145063e+05, 3.738162e+10
1.146208e+05, 3.842416e+10
1.147355e+05, 3.738383e+10
1.148502e+05, 3.717217e+10
1.149650e+05, 3.752627e+10
1.150800e+05, 3.729985e+10
1.151951e+05, 3.689459e+10
1.153103e+05, 3.693536e+10
1.154256e+05, 3.612681e+10
1.155410e+05, 3.581236e+10
1.156566e+05, 3.626671e+10
1.157722e+05, 3.594374e+10
1.158880e+05, 3.593598e+10
1.160039e+05, 3.496939e+10
1.161199e+05, 3.520939e+10
1.162360e+05, 3.580101e+10
1.163522e+05, 3.548181e+10
1.164686e+05, 3.581368e+10
1.165851e+05, 3.577907e+10
1.167016e+05, 3.560542e+10
1.168183e+05, 3.515902e+10
1.169352e+05, 3.508525e+10
1.170521e+05, 3.504201e+10
1.171691e+05, 3.444450e+10
1.172863e+05, 3.422192e+10
1.174036e+05, 3.367414e+10
1.175210e+05, 3.409709e+10
1.176385e+05, 3.387194e+10
1.177562e+05, 3.388834e+10
1.178739e+05, 3.413733e+10
1.179918e+05, 3.316822e+10
1.181098e+05, 3.368627e+10
1.182279e+05, 3.313034e+10
1.183461e+05, 3.254121e+10
1.184645e+05, 3.396183e+10
1.185829e+05, 3.238591e+10
1.187015e+05, 3.317063e+10
1.188202e+05, 3.354300e+10
1.189390e+05, 3.307434e+10
1.190580e+05, 3.178309e+10
1.191770e+05, 3.216789e+10
1.192962e+05, 3.183841e+10
1.194155e+05, 3.301073e+10
1.195349e+05, 3.210399e+10
1.196545e+05, 3.158384e+10
1.197741e+05, 3.262918e+10
1.198939e+05, 3.188656e+10
1.200138e+05, 3.152944e+10
1.201338e+05, 3.158510e+10
1.202539e+05, 3.085973e+10
1.203742e+05, 3.187775e+10
1.204946e+05, 3.055270e+10
1.206151e+05, 3.063779e+10
1.207357e+05, 3.166161e+10
1.208564e+05, 3.058803e+10
1.209773e+05, 3.055235e+10
1.210982e+05, 3.047294e+10
1.212193e+05, 3.004141e+10
1.213406e+05, 3.076298e+10
1.214619e+05, 2.967553e+10
1.215834e+05, 2.929912e+10
1.217049e+05, 3.044519e+10
1.218266e+05, 3.020358e+10
1.219485e+05, 2.989536e+10
1.220704e+05, 2.965467e+10
1.221925e+05, 2.940371e+10
1.223147e+05, 3.007528e+10
1.224370e+05, 2.913889e+10
1.225594e+05, 2.896308e+10
1.226820e+05, 2.891038e+10
1.228047e+05, 2.846363e+10
1.229275e+05, 2.888231e+10
1.230504e+05, 2.905012e+10
1.231735e+05, 2.819857e+10
1.232966e+05, 2.863300e+10
1.234199e+05, 2.872140e+10
1.235433e+05, 2.826772e+10
1.236669e+05, 2.772853e+10
1.237906e+05, 2.823811e+10
1.239144e+05, 2.847334e+10
1.240383e+05, 2.762692e+10
1.241623e+05, 2.736853e+10
1.242865e+05, 2.699397e+10
1.244108e+05, 2.700135e+10
1.245352e+05, 2.704324e+10
1.246597e+05, 2.756284e+10
1.247844e+05, 2.708021e+10
1.249091e+05, 2.724674e+10
1.250341e+05, 2.696680e+10
1.251591e+05, 2.692979e+10
1.252842e+05, 2.644453e+10
1.254095e+05, 2.644960e+10
1.255349e+05, 2.637592e+10
1.256605e+05, 2.659748e+10
1.257861e+05, 2.632279e+10
1.259119e+05, 2.620257e+10
1.260378e+05, 2.603884e+10
1.261639e+05, 2.655259e+10
1.262900e+05, 2.617779e+10
1.264163e+05, 2.535451e+10
1.265427e+05, 2.517312e+10
1.266693e+05, 2.474050e+10
1.267960e+05, 2.528975e+10
1.269227e+05, 2.579167e+10
1.270497e+05, 2.548766e+10
1.271767e+05, 2.560592e+10
1.273039e+05, 2.526168e+10
1.274312e+05, 2.577149e+10
1.275586e+05, 2.493206e+10
1.276862e+05, 2.477005e+10
1.278139e+05, 2.431342e+10
1.279417e+05, 2.428379e+10
1.280696e+05, 2.417273e+10
1.281977e+05, 2.453896e+10
1.283259e+05, 2.463572e+10
1.284542e+05, 2.420922e+10
1.285827e+05, 2.436934e+10
1.287113e+05, 2.458205e+10
1.288400e+05, 2.467969e+10
1.289688e+05, 2.395035e+10
1.290978e+05, 2.404518e+10
1.292269e+05, 2.344053e+10
1.293561e+05, 2.345354e+10
1.294855e+05, 2.369302e+10
1.296149e+05, 2.350547e+10
1.297446e+05, 2.336352e+10
1.298743e+05, 2.307885e+10
1.300042e+05, 2.339301e+10
1.301342e+05, 2.320863e+10
1.302643e+05, 2.267557e+10
1.303946e+05, 2.296709e+10
1.305250e+05, 2.276921e+10
1.306555e+05, 2.288943e+10
1.307862e+05, 2.260498e+10
1.309169e+05, 2.215753e+10
1.310479e+05, 2.297820e+10
1.311789e+05, 2.258648e+10
1.313101e+05, 2.261810e+10
1.314414e+05, 2.201007e+10
1.315728e+05, 2.215943e+10
1.317044e+05, 2.193547e+10
1.318361e+05, 2.159902e+10
1.319680e+05, 2.219241e+10
1.320999e+05, 2.109381e+10
1.322320e+05, 2.166246e+10
1.323643e+05, 2.177348e+10
1.324966e+05, 2.184003e+10
1.326291e+05, 2.120137e+10
1.327617e+05, 2.185055e+10
1.328945e+05, 2.117261e+10
1.330274e+05, 2.134038e+10
1.331604e+05, 2.098481e+10
1.332936e+05, 2.105701e+10
1.334269e+05, 2.070039e+10
1.335603e+05, 2.060425e+10
1.336939e+05, 2.094493e+10
1.338276e+05, 2.084310e+10
1.339614e+05, 2.104369e+10
1.340954e+05, 2.103135e+10
1.342294e+05, 2.035844e+10
1.343637e+05, 2.056969e+10
1.344980e+05, 2.012897e+10
1.346325e+05, 2.034976e+10
1.347672e+05, 2.022466e+10
1.349019e+05, 2.012524e+10
1.350368e+05, 2.033576e+10
1.351719e+05, 2.031125e+10
1.353070e+05, 1.964041e+10
1.354424e+05, 1.937572e+10
1.355778e+05, 1.938414e+10
1.357134e+05, 1.938748e+10
1.358491e+05, 1.973226e+10
1.359849e+05, 1.955538e+10
1.361209e+05, 1.934550e+10
1.362570e+05, 1.944653e+10
1.363933e+05, 1.887204e+10
1.365297e+05, 1.898163e+10
1.366662e+05, 1.945521e+10
1.368029e+05, 1.949345e+10
1.369397e+05, 1.873077e+10
1.370766e+05, 1.883278e+10
1.372137e+05, 1.870606e+10
1.373509e+05, 1.905682e+10
1.374883e+05, 1.859453e+10
1.376258e+05, 1.802533e+10
1.377634e+05, 1.829808e+10
1.379012e+05, 1.860266e+10
1.380391e+05, 1.882806e+10
1.381771e+05, 1.841470e+10
1.383153e+05, 1.863052e+10
1.384536e+05, 1.818656e+10
1.385920e+05, 1.809033e+10
1.387306e+05, 1.838109e+10
1.388694e+05, 1.829875e+10
1.390082e+05, 1.809443e+10
1.391472e+05, 1.794981e+10
1.392864e+05, 1.811333e+10
1.394257e+05, 1.792195e+10
1.395651e+05, 1.795072e+10
1.397047e+05, 1.738958e+10
1.398444e+05, 1.774884e+10
1.399842e+05, 1.746427e+10
1.401242e+05, 1.726281e+10
1.402643e+05, 1.759222e+10
1.404046e+05, 1.736512e+10
1.405450e+05, 1.714186e+10
1.406855e+05, 1.681283e+10
1.408262e+05, 1.713335e+10
1.409670e+05, 1.720722e+10
1.411080e+05, 1.700457e+10
1.412491e+05, 1.646605e+10
1.413904e+05, 1.664985e+10
1.415318e+05, 1.658872e+10
1.416733e+05, 1.637074e+10
1.418150e+05, 1.655412e+10
1.419568e+05, 1.637495e+10
1.420987e+05, 1.602425e+10
1.422408e+05, 1.647839e+10
1.423831e+05, 1.637168e+10
1.425255e+05, 1.662839e+10
1.426680e+05, 1.640316e+10
1.428107e+05, 1.634473e+10
1.429535e+05, 1.627208e+10
1.430964e+05, 1.634442e+10
1.432395e+05, 1.575584e+10
1.433828e+05, 1.603549e+10
1.435261e+05, 1.596757e+10
1.436697e+05, 1.590437e+10
1.438133e+05, 1.579686e+10
1.439571e+05, 1.576954e+10
1.441011e+05, 1.553951e+10
1.442452e+05, 1.554296e+10
1.443894e+05, 1.554127e+10
1.445338e+05, 1.534929e+10
1.446784e+05, 1.531508e+10
1.448231e+05, 1.514851e+10
1.449679e+05, 1.499249e+10
1.451128e+05, 1.550058e+10
1.452580e+05, 1.513904e+10
1.454032e+05, 1.523320e+10
1.455486e+05, 1.518734e+10
1.456942e+05, 1.534753e+10
1.458399e+05, 1.492506e+10
1.459857e+05, 1.495548e+10
1.461317e+05, 1.509901e+10
1.462778e+05, 1.423446e+10
1.464241e+05, 1.432712e+10
1.465705e+05, 1.391370e+10
1.467171e+05, 1.441875e+10
1.468638e+05, 1.444587e+10
1.470107e+05, 1.436764e+10
1.471577e+05, 1.409494e+10
1.473048e+05, 1.426103e+10
1.474521e+05, 1.433713e+10
1.475996e+05, 1.448314e+10
1.477472e+05, 1.429286e+10
1.478949e+05, 1.428210e+10
1.480428e+05, 1.449256e+10
1.481909e+05, 1.419768e+10
1.483391e+05, 1.403693e+10
1.484874e+05, 1.396527e+10
1.486359e+05, 1.384588e+10
1.487845e+05, 1.381237e+10
1.489333e+05, 1.366196e+10
1.490823e+05, 1.381032e+10
1.492313e+05, 1.356027e+10
1.493806e+05, 1.378223e+10
1.495299e+05, 1.360500e+10
1.496795e+05, 1.334386e+10
1.498292e+05, 1.327397e+10
1.499790e+05, 1.370898e+10
1.501290e+05, 1.332787e+10
1.502791e+05, 1.350979e+10
1.504294e+05, 1.287087e+10
1.505798e+05, 1.328569e+10
1.507304e+05, 1.349542e+10
1.508811e+05, 1.324787e+10
1.510320e+05, 1.305189e+10
1.511830e+05, 1.304940e+10
1.513342e+05, 1.278787e+10
1.514855e+05, 1.312563e+10
1.516370e+05, 1.304465e+10
1.517887e+05, 1.254977e+10
1.519405e+05, 1.278839e+10
1.520924e+05, 1.301439e+10
1.522445e+05, 1.258122e+10
1.523967e+05, 1.262190e+10
1.525491e+05, 1.228540e+10
1.527017e+05, 1.245247e+10
1.528544e+05, 1.217835e+10
1.530072e+05, 1.225404e+10
1.531602e+05, 1.216379e+10
1.533134e+05, 1.222524e+10
1.534667e+05, 1.214230e+10
1.536202e+05, 1.215960e+10
1.537738e+05, 1.204032e+10
1.539276e+05, 1.199940e+10
1.540815e+05, 1.229223e+10
1.542356e+05, 1.191464e+10
1.543898e+05, 1.195398e+10
1.545442e+05, 1.183357e+10
1.546988e+05, 1.181185e+10
1.548534e+05, 1.187778e+10
1.550083e+05, 1.188170e+10
1.551633e+05, 1.177143e+10
1.553185e+05, 1.171860e+10
1.554738e+05, 1.174490e+10
1.556293e+05, 1.157935e+10
1.557849e+05, 1.159535e+10
1.559407e+05, 1.165569e+10
1.560966e+05, 1.162557e+10
1.562527e+05, 1.158995e+10
1.564090e+05, 1.130110e+10
1.565654e+05, 1.137972e+10
1.567219e+05, 1.146445e+10
1.568787e+05, 1.134558e+10
1.570355e+05, 1.129226e+10
1.571926e+05, 1.117544e+10
1.573498e+05, 1.127403e+10
1.575071e+05, 1.099120e+10
1.576646e+05, 1.100948e+10
1.578223e+05, 1.125709e+10
1.579801e+05, 1.102275e+10
1.581381e+05, 1.083223e+10
1.582962e+05, 1.107170e+10
1.584545e+05, 1.087652e+10
1.586130e+05, 1.067640e+10
1.587716e+05, 1.096464e+10
1.589304e+05, 1.051891e+10
1.590893e+05, 1.060358e+10
1.592484e+05, 1.028788e+10
1.594076e+05, 1.071376e+10
1.595670e+05, 1.041832e+10
1.597266e+05, 1.037956e+10
1.598863e+05, 1.022299e+10
1.600462e+05, 1.027833e+10
1.602063e+05, 1.019707e+10
1.603665e+05, 1.041516e+10
1.605268e+05, 1.022051e+10
1.606874e+05, 1.040377e+10
1.608481e+05, 1.015435e+10
1.610089e+05, 1.012112e+10
1.611699e+05, 1.000569e+10
1.613311e+05, 1.026406e+10
1.614924e+05, 9.973819e+09
1.616539e+05, 9.884891e+09
1.618156e+05, 1.006540e+10
1.619774e+05, 9.983991e+09
1.621394e+05, 9.779808e+09
1.623015e+05, 9.960575e+09
1.624638e+05, 1.001240e+10
1.626263e+05, 9.760777e+09
1.627889e+05, 9.662442e+09
1.629517e+05, 9.843898e+09
1.631146e+05, 9.786843e+09
1.632777e+05, 9.579054e+09
1.634410e+05, 9.872409e+09
1.636045e+05, 9.926214e+09
1.637681e+05, 9.590075e+09
1.639318e+05, 9.345377e+09
1.640958e+05, 9.523520e+09
1.642599e+05, 9.491313e+09
1.644241e+05, 9.476534e+09
1.645885e+05, 9.546244e+09
1.647531e+05, 9.090376e+09
1.649179e+05, 9.351501e+09
1.650828e+05, 9.390677e+09
1.652479e+05, 9.301705e+09
1.654131e+05, 9.258469e+09
1.655785e+05, 8.874484e+09
1.657441e+05, 9.015410e+09
1.659099e+05, 9.078347e+09
1.660758e+05, 8.956357e+09
1.662419e+05, 8.812342e+09
1.664081e+05, 8.849020e+09
1.665745e+05, 8.870049e+09
1.667411e+05, 8.959388e+09
1.669078e+05, 8.991035e+09
1.670747e+05, 8.787307e+09
1.672418e+05, 8.686416e+09
1.674090e+05, 8.861755e+09
1.675765e+05, 8.616530e+09
1.677440e+05, 8.983994e+09
1.679118e+05, 8.666700e+09
1.680797e+05, 8.683510e+09
1.682478e+05, 8.524839e+09
1.684160e+05, 8.333312e+09
1.685844e+05, 8.662838e+09
1.687530e+05, 8.321267e+09
1.689218e+05, 8.468972e+09
1.690907e+05, 8.501679e+09
1.692598e+05, 8.316648e+09
1.694290e+05, 8.515260e+09
1.695985e+05, 8.471240e+09
1.697681e+05, 8.355194e+09
1.699378e+05, 8.267902e+09
1.701078e+05, 8.407387e+09
1.702779e+05, 8.302021e+09
1.704482e+05, 8.317982e+09
1.706186e+05, 8.234111e+09
1.707892e+05, 8.099326e+09
1.709600e+05, 8.172260e+09
1.711310e+05, 8.140376e+09
1.713021e+05, 7.907218e+09
1.714734e+05, 7.960928e+09
1.716449e+05, 8.010701e+09
1.718165e+05, 7.953845e+09
1.719883e+05, 7.863657e+09
1.721603e+05, 7.904829e+09
1.723325e+05, 7.723343e+09
1.725048e+05, 7.704721e+09
1.726773e+05, 7.696331e+09
1.728500e+05, 7.698699e+09
1.730229e+05, 7.797448e+09
1.731959e+05, 7.712444e+09
1.733691e+05, 7.622729e+09
1.735424e+05, 7.562320e+09
1.737160e+05, 7.581879e+09
1.738897e+05, 7.645578e+09
1.740636e+05, 7.443638e+09
1.742377e+05, 7.644519e+09
1.744119e+05, 7.425518e+09
1.745863e+05, 7.467466e+09
1.747609e+05, 7.316219e+09
1.749357e+05, 7.482031e+09
1.751106e+05, 7.430519e+09
1.752857e+05, 7.175536e+09
1.754610e+05, 7.208310e+09
1.756364e+05, 7.285247e+09
1.758121e+05, 7.284128e+09
1.759879e+05, 7.220166e+09
1.761639e+05, 7.235698e+09
1.763400e+05, 7.061518e+09
1.765164e+05, 7.113987e+09
1.766929e+05, 7.130790e+09
1.768696e+05, 7.173721e+09
1.770465e+05, 7.083933e+09
1.772235e+05, 7.018519e+09
1.774007e+05, 7.027657e+09
1.775781e+05, 6.997691e+09
1.777557e+05, 6.853346e+09
1.779335e+05, 7.014252e+09
1.781114e+05, 6.937016e+09
1.782895e+05, 6.897697e+09
1.784678e+05, 6.877138e+09
1.786463e+05, 6.880430e+09
1.788249e+05, 6.903114e+09
1.790037e+05, 6.905673e+09
1.791827e+05, 6.777059e+09
1.793619e+05, 6.640489e+09
1.795413e+05, 6.668146e+09
1.797208e+05, 6.786420e+09
1.799006e+05, 6.940076e+09
1.800805e+05, 6.664414e+09
1.802605e+05, 6.511182e+09
1.804408e+05, 6.635689e+09
1.806212e+05, 6.533491e+09
1.808019e+05, 6.467732e+09
1.809827e+05, 6.487414e+09
1.811636e+05, 6.612101e+09
1.813448e+05, 6.413360e+09
1.815262e+05, 6.327654e+09
1.817077e+05, 6.263908e+09
1.818894e+05, 6.305179e+09
1.820713e+05, 6.438921e+09
1.822533e+05, 6.330290e+09
1.824356e+05, 6.267826e+09
1.826180e+05, 6.284595e+09
1.828007e+05, 6.218637e+09
1.829835e+05, 6.201957e+09
1.831664e+05, 6.188670e+09
1.833496e+05, 6.284428e+09
1.835330e+05, 6.216887e+09
1.837165e+05, 6.131785e+09
1.839002e+05, 6.105730e+09
1.840841e+05, 6.108292e+09
1.842682e+05, 5.987491e+09
1.844525e+05, 6.194204e+09
1.846369e+05, 6.084323e+09
1.848215e+05, 6.118089e+09
1.850064e+05, 5.902242e+09
1.851914e+05, 5.866393e+09
1.853766e+05, 5.885260e+09
1.855619e+05, 5.799787e+09
1.857475e+05, 5.904468e+09
1.859333e+05, 5.742580e+09
1.861192e+05, 5.809820e+09
1.863053e+05, 5.763852e+09
1.864916e+05, 5.813245e+09
1.866781e+05, 5.747207e+09
1.868648e+05, 5.859829e+09
1.870516e+05, 5.743174e+09
1.872387e+05, 5.587752e+09
1.874259e+05, 5.722203e+09
1.876134e+05, 5.561999e+09
1.878010e+05, 5.664501e+09
1.879888e+05, 5.692415e+09
1.881768e+05, 5.601770e+09
1.883649e+05, 5.584332e+09
1.885533e+05, 5.541034e+09
1.887419e+05, 5.512182e+09
1.889306e+05, 5.479476e+09
1.891195e+05, 5.548113e+09
1.893086e+05, 5.459457e+09
1.894980e+05, 5.409542e+09
1.896875e+05, 5.399030e+09
1.898771e+05, 5.445207e+09
1.900670e+05, 5.346820e+09
1.902571e+05, 5.463402e+09
1.904473e+05, 5.304493e+09
1.906378e+05, 5.398291e+09
1.908284e+05, 5.277376e+09
1.910193e+05, 5.415265e+09
1.912103e+05, 5.371812e+09
1.914015e+05, 5.244674e+09
1.915929e+05, 5.347932e+09
1.917845e+05, 5.101307e+09
1.919763e+05, 5.153152e+09
1.921682e+05, 5.044795e+09
1.923604e+05, 5.091602e+09
1.925528e+05, 5.134471e+09
1.927453e+05, 5.120092e+09
1.929381e+05, 5.026502e+09
1.931310e+05, 5.092115e+09
1.933241e+05, 5.036997e+09
1.935175e+05, 4.973507e+09
1.937110e+05, 5.047666e+09
1.939047e+05, 5.105758e+09
1.940986e+05, 4.944150e+09
1.942927e+05, 4.871806e+09
1.944870e+05, 4.941916e+09
1.946815e+05, 4.952614e+09
1.948762e+05, 4.904393e+09
1.950710e+05, 5.006432e+09
1.952661e+05, 4.884488e+09
1.954614e+05, 4.908905e+09
1.956568e+05, 4.753446e+09
1.958525e+05, 4.682903e+09
1.960483e+05, 4.839083e+09
1.962444e+05, 4.647629e+09
1.964406e+05, 4.660676e+09
1.966371e+05, 4.703789e+09
1.968337e+05, 4.731776e+09
1.970305e+05, 4.768063e+09
1.972276e+05, 4.742505e+09
1.974248e+05, 4.630757e+09
1.976222e+05, 4.677707e+09
1.978198e+05, 4.657763e+09
1.980177e+05, 4.557310e+09
1.982157e+05, 4.533387e+09
1.984139e+05, 4.541825e+09
1.986123e+05, 4.568815e+09
1.988109e+05, 4.536011e+09
1.990097e+05, 4.484285e+09
1.992087e+05, 4.530920e+09
1.994080e+05, 4.413294e+09
1.996074e+05, 4.448613e+09
1.998070e+05, 4.556373e+09