wavelength[Angstrom], flux[erg / (cm3 s)]
1.000000e+03, 1.931802e-35
1.001000e+03, 1.639703e-36
1.002001e+03, 3.808310e-45
1.003003e+03, 9.319221e-44
1.004006e+03, 6.241474e-41
1.005010e+03, 4.622534e-39
1.006015e+03, 4.655449e-43
1.007021e+03, 2.917691e-40
1.008028e+03, 4.702016e-42
1.009036e+03, 1.359026e-45
1.010045e+03, 1.297650e-44
1.011055e+03, 3.360144e-42
1.012066e+03, 9.219541e-44
1.013078e+03, 2.601682e-46
1.014091e+03, 3.040532e-46
1.015105e+03, 1.326258e-40
1.016121e+03, 1.891061e-39
1.017137e+03, 2.220159e-44
1.018154e+03, 1.404885e-39
1.019172e+03, 1.269424e-39
1.020191e+03, 5.117852e-40
1.021211e+03, 1.515373e-37
1.022233e+03, 1.744772e-35
1.023255e+03, 1.529188e-37
1.024278e+03, 9.776136e-40
1.025302e+03, 1.687814e-42
1.026328e+03, 1.040632e-41
1.027354e+03, 2.377114e-37
1.028381e+03, 3.596958e-42
1.029410e+03, 5.709744e-39
1.030439e+03, 1.763275e-37
1.031470e+03, 2.688382e-39
1.032501e+03, 2.314375e-35
1.033533e+03, 7.515319e-35
1.034567e+03, 1.482161e-35
1.035602e+03, 9.006836e-38
1.036637e+03, 5.480094e-41
1.037674e+03, 1.253834e-40
1.038712e+03, 1.350857e-38
1.039750e+03, 3.654755e-38
1.040790e+03, 4.692498e-41
1.041831e+03, 5.197205e-36
1.042873e+03, 9.825507e-36
1.043915e+03, 7.005182e-38
1.044959e+03, 5.288027e-34
1.046004e+03, 8.214221e-33
1.047050e+03, 1.108401e-32
1.048097e+03, 2.235917e-36
1.049145e+03, 5.028193e-41
1.050195e+03, 2.313981e-39
1.051245e+03, 6.540474e-41
1.052296e+03, 2.671797e-38
1.053348e+03, 3.828328e-39
1.054402e+03, 8.649734e-36
1.055456e+03, 1.807513e-34
1.056512e+03, 4.139565e-38
1.057568e+03, 3.466143e-35
1.058626e+03, 1.380830e-34
1.059684e+03, 3.724424e-32
1.060744e+03, 4.552819e-35
1.061805e+03, 1.665533e-36
1.062867e+03, 3.399182e-36
1.063929e+03, 1.666382e-37
1.064993e+03, 1.098101e-39
1.066058e+03, 4.060441e-35
1.067124e+03, 5.808248e-38
1.068191e+03, 1.492527e-32
1.069260e+03, 2.378924e-32
1.070329e+03, 6.580068e-38
1.071399e+03, 3.112585e-32
1.072471e+03, 1.562579e-31
1.073543e+03, 1.458443e-31
1.074617e+03, 1.300001e-35
1.075691e+03, 2.573480e-31
1.076767e+03, 1.851797e-31
1.077844e+03, 3.308524e-38
1.078922e+03, 8.845589e-37
1.080001e+03, 4.783557e-34
1.081081e+03, 4.122794e-35
1.082162e+03, 2.949703e-31
1.083244e+03, 4.670990e-30
1.084327e+03, 1.309508e-33
1.085411e+03, 4.765421e-33
1.086497e+03, 2.575503e-31
1.087583e+03, 1.659902e-29
1.088671e+03, 3.203225e-30
1.089759e+03, 1.762590e-30
1.090849e+03, 3.949341e-28
1.091940e+03, 1.432010e-29
1.093032e+03, 3.838991e-33
1.094125e+03, 2.738120e-35
1.095219e+03, 8.364422e-30
1.096314e+03, 1.340940e-30
1.097411e+03, 5.161212e-30
1.098508e+03, 6.006522e-28
1.099607e+03, 1.682259e-31
1.100706e+03, 1.446402e-31
1.101807e+03, 9.385089e-27
1.102909e+03, 4.143687e-25
1.104012e+03, 5.270187e-28
1.105116e+03, 8.602032e-28
1.106221e+03, 3.731285e-26
1.107327e+03, 2.232683e-27
1.108434e+03, 1.184718e-31
1.109543e+03, 7.607738e-33
1.110652e+03, 1.332655e-25
1.111763e+03, 3.262984e-25
1.112875e+03, 1.502660e-26
1.113988e+03, 2.443653e-26
1.115102e+03, 4.314931e-27
1.116217e+03, 3.625830e-30
1.117333e+03, 7.534559e-24
1.118450e+03, 1.451898e-22
1.119569e+03, 5.159355e-25
1.120688e+03, 8.003706e-26
1.121809e+03, 1.360555e-23
1.122931e+03, 1.607151e-25
1.124054e+03, 3.873728e-25
1.125178e+03, 2.499041e-25
1.126303e+03, 3.212681e-22
1.127429e+03, 4.018879e-23
1.128557e+03, 1.032808e-24
1.129685e+03, 1.241184e-24
1.130815e+03, 3.381124e-23
1.131946e+03, 1.189609e-25
1.133078e+03, 3.774126e-21
1.134211e+03, 2.646497e-20
1.135345e+03, 2.202691e-23
1.136480e+03, 3.018269e-19
1.137617e+03, 3.903241e-18
1.138754e+03, 2.472700e-20
1.139893e+03, 5.036189e-24
1.141033e+03, 2.658445e-19
1.142174e+03, 1.342160e-19
1.143316e+03, 8.106041e-20
1.144460e+03, 3.807443e-22
1.145604e+03, 5.338991e-23
1.146750e+03, 1.147730e-22
1.147896e+03, 2.690607e-20
1.149044e+03, 2.073071e-20
1.150193e+03, 1.888163e-19
1.151344e+03, 6.536133e-21
1.152495e+03, 2.503951e-19
1.153647e+03, 1.777020e-16
1.154801e+03, 3.549102e-17
1.155956e+03, 8.897303e-19
1.157112e+03, 3.338280e-18
1.158269e+03, 1.284836e-18
1.159427e+03, 5.900219e-19
1.160587e+03, 8.966327e-17
1.161747e+03, 1.082179e-20
1.162909e+03, 1.676290e-19
1.164072e+03, 7.907006e-18
1.165236e+03, 1.297128e-17
1.166401e+03, 2.360006e-21
1.167568e+03, 8.021863e-19
1.168735e+03, 2.561129e-18
1.169904e+03, 2.992946e-18
1.171074e+03, 1.064647e-14
1.172245e+03, 9.036418e-15
1.173417e+03, 1.569841e-15
1.174590e+03, 1.646105e-18
1.175765e+03, 9.621948e-18
1.176941e+03, 1.083473e-14
1.178118e+03, 5.307914e-14
1.179296e+03, 5.166286e-17
1.180475e+03, 8.617500e-15
1.181656e+03, 8.033389e-15
1.182837e+03, 2.095400e-15
1.184020e+03, 2.034924e-16
1.185204e+03, 2.030520e-17
1.186389e+03, 6.507759e-16
1.187576e+03, 2.502158e-14
1.188763e+03, 2.108173e-13
1.189952e+03, 1.844525e-13
1.191142e+03, 1.077402e-13
1.192333e+03, 1.872829e-16
1.193526e+03, 8.649464e-15
1.194719e+03, 7.484681e-14
1.195914e+03, 2.510841e-14
1.197110e+03, 1.610971e-13
1.198307e+03, 1.440645e-15
1.199505e+03, 2.458920e-14
1.200705e+03, 5.170687e-15
1.201905e+03, 9.011535e-16
1.203107e+03, 2.946981e-14
1.204310e+03, 6.882043e-14
1.205515e+03, 1.418554e-14
1.206720e+03, 5.357468e-14
1.207927e+03, 5.906070e-14
1.209135e+03, 9.892617e-14
1.210344e+03, 8.784551e-16
1.211554e+03, 3.043902e-14
1.212766e+03, 2.377543e-14
1.213979e+03, 9.151234e-15
1.215193e+03, 1.828339e-16
1.216408e+03, 6.242306e-16
1.217624e+03, 5.259681e-15
1.218842e+03, 9.658345e-15
1.220061e+03, 9.159132e-15
1.221281e+03, 1.212901e-14
1.222502e+03, 3.881776e-14
1.223724e+03, 1.727429e-13
1.224948e+03, 3.059720e-14
1.226173e+03, 1.618396e-13
1.227399e+03, 8.239503e-14
1.228627e+03, 7.616093e-14
1.229855e+03, 8.771059e-15
1.231085e+03, 9.808123e-14
1.232316e+03, 3.037471e-13
1.233549e+03, 2.098604e-13
1.234782e+03, 1.069720e-13
1.236017e+03, 8.145530e-14
1.237253e+03, 1.071729e-13
1.238490e+03, 2.133612e-13
1.239729e+03, 3.783300e-13
1.240968e+03, 1.078667e-13
1.242209e+03, 1.511896e-13
1.243452e+03, 2.308084e-13
1.244695e+03, 2.840253e-13
1.245940e+03, 1.485433e-13
1.247186e+03, 2.129567e-13
1.248433e+03, 2.662387e-13
1.249681e+03, 2.253374e-13
1.250931e+03, 3.198591e-13
1.252182e+03, 2.677981e-13
1.253434e+03, 2.922647e-13
1.254688e+03, 3.334790e-13
1.255942e+03, 1.979973e-13
1.257198e+03, 1.289134e-13
1.258455e+03, 1.910021e-13
1.259714e+03, 3.864859e-13
1.260974e+03, 2.423770e-13
1.262235e+03, 3.377889e-13
1.263497e+03, 3.945009e-13
1.264760e+03, 4.170593e-13
1.266025e+03, 3.555586e-13
1.267291e+03, 3.148072e-13
1.268558e+03, 4.060486e-13
1.269827e+03, 8.435965e-13
1.271097e+03, 5.985562e-13
1.272368e+03, 6.316193e-13
1.273640e+03, 1.091765e-12
1.274914e+03, 4.783076e-13
1.276189e+03, 6.799193e-13
1.277465e+03, 1.004165e-12
1.278742e+03, 7.117999e-13
1.280021e+03, 8.563037e-13
1.281301e+03, 1.587530e-12
1.282582e+03, 9.676299e-13
1.283865e+03, 1.887991e-12
1.285149e+03, 2.279912e-12
1.286434e+03, 1.400627e-12
1.287720e+03, 2.647034e-12
1.289008e+03, 2.988180e-12
1.290297e+03, 3.757323e-12
1.291588e+03, 3.950253e-12
1.292879e+03, 3.286462e-12
1.294172e+03, 6.119253e-12
1.295466e+03, 8.112093e-12
1.296762e+03, 9.686365e-12
1.298058e+03, 7.714934e-12
1.299356e+03, 1.101538e-11
1.300656e+03, 1.749225e-11
1.301956e+03, 2.651605e-11
1.303258e+03, 3.318373e-11
1.304562e+03, 3.668973e-11
1.305866e+03, 3.594272e-11
1.307172e+03, 3.494746e-11
1.308479e+03, 4.297278e-11
1.309788e+03, 4.069075e-11
1.311098e+03, 2.860730e-11
1.312409e+03, 2.323648e-11
1.313721e+03, 2.716194e-11
1.315035e+03, 2.073527e-11
1.316350e+03, 2.410425e-11
1.317666e+03, 2.887068e-11
1.318984e+03, 1.859496e-11
1.320303e+03, 2.482596e-11
1.321623e+03, 2.442167e-11
1.322945e+03, 1.921949e-11
1.324268e+03, 1.921828e-11
1.325592e+03, 2.309909e-11
1.326918e+03, 2.459740e-11
1.328244e+03, 3.226948e-11
1.329573e+03, 3.829331e-11
1.330902e+03, 4.892539e-11
1.332233e+03, 5.794119e-11
1.333565e+03, 5.259318e-11
1.334899e+03, 6.649090e-11
1.336234e+03, 6.485751e-11
1.337570e+03, 7.087422e-11
1.338908e+03, 6.663606e-11
1.340247e+03, 7.255484e-11
1.341587e+03, 8.561286e-11
1.342928e+03, 5.810675e-11
1.344271e+03, 8.043005e-11
1.345616e+03, 6.070186e-11
1.346961e+03, 6.457669e-11
1.348308e+03, 7.765968e-11
1.349656e+03, 7.079806e-11
1.351006e+03, 9.325712e-11
1.352357e+03, 1.271704e-10
1.353709e+03, 1.727871e-10
1.355063e+03, 2.078075e-10
1.356418e+03, 1.741433e-10
1.357775e+03, 1.873754e-10
1.359132e+03, 1.883176e-10
1.360492e+03, 1.533137e-10
1.361852e+03, 1.536677e-10
1.363214e+03, 1.427382e-10
1.364577e+03, 1.665962e-10
1.365942e+03, 1.287062e-10
1.367308e+03, 1.354382e-10
1.368675e+03, 1.135682e-10
1.370044e+03, 1.431208e-10
1.371414e+03, 1.243681e-10
1.372785e+03, 1.341940e-10
1.374158e+03, 1.117694e-10
1.375532e+03, 1.603232e-10
1.376908e+03, 1.453811e-10
1.378284e+03, 2.226057e-10
1.379663e+03, 2.141954e-10
1.381042e+03, 2.638209e-10
1.382423e+03, 3.148038e-10
1.383806e+03, 3.269232e-10
1.385190e+03, 3.604169e-10
1.386575e+03, 4.554373e-10
1.387961e+03, 5.410103e-10
1.389349e+03, 6.410426e-10
1.390739e+03, 6.445618e-10
1.392130e+03, 8.104034e-10
1.393522e+03, 9.307279e-10
1.394915e+03, 1.033864e-09
1.396310e+03, 1.355885e-09
1.397706e+03, 1.623481e-09
1.399104e+03, 1.894980e-09
1.400503e+03, 2.341084e-09
1.401904e+03, 2.562512e-09
1.403306e+03, 2.642355e-09
1.404709e+03, 2.616086e-09
1.406114e+03, 3.242229e-09
1.407520e+03, 3.372404e-09
1.408927e+03, 3.503732e-09
1.410336e+03, 3.564397e-09
1.411747e+03, 3.797838e-09
1.413158e+03, 3.401495e-09
1.414571e+03, 4.437857e-09
1.415986e+03, 4.248743e-09
1.417402e+03, 4.741882e-09
1.418819e+03, 4.914643e-09
1.420238e+03, 6.182223e-09
1.421658e+03, 5.434657e-09
1.423080e+03, 5.635430e-09
1.424503e+03, 5.586733e-09
1.425928e+03, 7.285280e-09
1.427354e+03, 5.825451e-09
1.428781e+03, 6.006521e-09
1.430210e+03, 6.313640e-09
1.431640e+03, 7.545279e-09
1.433072e+03, 7.312984e-09
1.434505e+03, 7.954096e-09
1.435939e+03, 7.887057e-09
1.437375e+03, 8.829370e-09
1.438813e+03, 9.370617e-09
1.440251e+03, 8.724940e-09
1.441692e+03, 8.630747e-09
1.443133e+03, 9.093345e-09
1.444576e+03, 9.895805e-09
1.446021e+03, 9.675629e-09
1.447467e+03, 8.674310e-09
1.448914e+03, 1.064841e-08
1.450363e+03, 1.121581e-08
1.451814e+03, 1.105808e-08
1.453266e+03, 1.244304e-08
1.454719e+03, 1.163146e-08
1.456174e+03, 1.290974e-08
1.457630e+03, 1.184028e-08
1.459087e+03, 1.316653e-08
1.460546e+03, 1.268187e-08
1.462007e+03, 1.421214e-08
1.463469e+03, 1.488220e-08
1.464932e+03, 1.575394e-08
1.466397e+03, 1.804184e-08
1.467864e+03, 1.748345e-08
1.469332e+03, 1.729175e-08
1.470801e+03, 1.974017e-08
1.472272e+03, 1.489909e-08
1.473744e+03, 1.920763e-08
1.475218e+03, 1.995708e-08
1.476693e+03, 2.000666e-08
1.478170e+03, 2.255113e-08
1.479648e+03, 2.317497e-08
1.481128e+03, 2.488694e-08
1.482609e+03, 2.439060e-08
1.484091e+03, 2.594090e-08
1.485575e+03, 2.770898e-08
1.487061e+03, 2.775530e-08
1.488548e+03, 2.986478e-08
1.490037e+03, 3.178127e-08
1.491527e+03, 3.236394e-08
1.493018e+03, 2.872909e-08
1.494511e+03, 2.700019e-08
1.496006e+03, 3.551656e-08
1.497502e+03, 3.546811e-08
1.498999e+03, 3.671310e-08
1.500498e+03, 3.443824e-08
1.501999e+03, 3.632348e-08
1.503501e+03, 3.781248e-08
1.505004e+03, 4.429259e-08
1.506509e+03, 4.559091e-08
1.508016e+03, 4.561909e-08
1.509524e+03, 4.692725e-08
1.511033e+03, 4.642477e-08
1.512544e+03, 4.015860e-08
1.514057e+03, 4.162747e-08
1.515571e+03, 4.233015e-08
1.517086e+03, 4.176034e-08
1.518603e+03, 3.916857e-08
1.520122e+03, 3.758991e-08
1.521642e+03, 3.328434e-08
1.523164e+03, 3.677966e-08
1.524687e+03, 3.702788e-08
1.526212e+03, 3.860676e-08
1.527738e+03, 4.235501e-08
1.529266e+03, 3.699904e-08
1.530795e+03, 3.423492e-08
1.532326e+03, 3.303679e-08
1.533858e+03, 3.272865e-08
1.535392e+03, 3.183633e-08
1.536927e+03, 3.754267e-08
1.538464e+03, 3.869421e-08
1.540003e+03, 3.261484e-08
1.541543e+03, 2.790655e-08
1.543084e+03, 3.648262e-08
1.544627e+03, 3.182376e-08
1.546172e+03, 3.294688e-08
1.547718e+03, 3.671162e-08
1.549266e+03, 3.625870e-08
1.550815e+03, 3.089368e-08
1.552366e+03, 2.939301e-08
1.553918e+03, 3.914025e-08
1.555472e+03, 3.912807e-08
1.557028e+03, 4.041229e-08
1.558585e+03, 4.706866e-08
1.560143e+03, 4.517483e-08
1.561703e+03, 5.161719e-08
1.563265e+03, 4.417017e-08
1.564828e+03, 4.899267e-08
1.566393e+03, 6.282072e-08
1.567960e+03, 5.098162e-08
1.569528e+03, 4.827351e-08
1.571097e+03, 5.105875e-08
1.572668e+03, 4.168851e-08
1.574241e+03, 4.646878e-08
1.575815e+03, 4.761806e-08
1.577391e+03, 6.682143e-08
1.578968e+03, 7.158997e-08
1.580547e+03, 3.873331e-08
1.582128e+03, 2.706345e-08
1.583710e+03, 5.173953e-08
1.585294e+03, 5.056323e-08
1.586879e+03, 5.380691e-08
1.588466e+03, 5.853606e-08
1.590054e+03, 5.251924e-08
1.591644e+03, 8.483459e-08
1.593236e+03, 4.072350e-08
1.594829e+03, 4.717342e-08
1.596424e+03, 4.406796e-08
1.598020e+03, 5.852078e-08
1.599618e+03, 6.121259e-08
1.601218e+03, 5.194509e-08
1.602819e+03, 5.230011e-08
1.604422e+03, 6.474062e-08
1.606027e+03, 4.764441e-08
1.607633e+03, 5.227141e-08
1.609240e+03, 3.652351e-08
1.610849e+03, 5.842798e-08
1.612460e+03, 5.120648e-08
1.614073e+03, 6.585204e-08
1.615687e+03, 8.821577e-08
1.617303e+03, 5.615687e-08
1.618920e+03, 9.411476e-08
1.620539e+03, 6.262502e-08
1.622159e+03, 5.961590e-08
1.623781e+03, 5.401182e-08
1.625405e+03, 8.054744e-08
1.627031e+03, 1.108157e-07
1.628658e+03, 2.168230e-07
1.630286e+03, 2.929287e-07
1.631917e+03, 3.117007e-07
1.633549e+03, 3.000645e-07
1.635182e+03, 1.945067e-07
1.636817e+03, 3.793780e-07
1.638454e+03, 1.212943e-07
1.640093e+03, 1.450023e-07
1.641733e+03, 2.778790e-07
1.643374e+03, 4.114677e-07
1.645018e+03, 5.146303e-07
1.646663e+03, 6.462141e-07
1.648309e+03, 1.084543e-06
1.649958e+03, 7.912550e-07
1.651608e+03, 2.812955e-07
1.653259e+03, 6.233112e-07
1.654913e+03, 5.740113e-07
1.656567e+03, 5.503534e-07
1.658224e+03, 6.532601e-07
1.659882e+03, 7.822232e-07
1.661542e+03, 1.731827e-06
1.663204e+03, 1.522797e-06
1.664867e+03, 2.097708e-06
1.666532e+03, 9.856688e-07
1.668198e+03, 7.969704e-07
1.669866e+03, 5.174891e-07
1.671536e+03, 1.022786e-06
1.673208e+03, 1.102277e-06
1.674881e+03, 1.925532e-06
1.676556e+03, 2.170983e-06
1.678233e+03, 2.769912e-06
1.679911e+03, 2.347596e-06
1.681591e+03, 2.289267e-06
1.683272e+03, 8.621045e-07
1.684956e+03, 1.771025e-06
1.686640e+03, 2.001962e-06
1.688327e+03, 2.139715e-06
1.690015e+03, 3.225176e-06
1.691705e+03, 4.994913e-06
1.693397e+03, 3.301066e-06
1.695091e+03, 8.572105e-06
1.696786e+03, 9.261072e-06
1.698482e+03, 5.369059e-06
1.700181e+03, 1.828020e-06
1.701881e+03, 3.327172e-06
1.703583e+03, 1.837281e-06
1.705287e+03, 5.479829e-06
1.706992e+03, 7.657749e-06
1.708699e+03, 9.004236e-06
1.710408e+03, 9.695567e-06
1.712118e+03, 1.556255e-05
1.713830e+03, 1.017755e-05
1.715544e+03, 1.923105e-05
1.717259e+03, 2.090804e-06
1.718977e+03, 4.588069e-06
1.720696e+03, 3.673066e-06
1.722416e+03, 6.944075e-06
1.724139e+03, 1.116045e-05
1.725863e+03, 1.388426e-05
1.727589e+03, 2.406688e-05
1.729316e+03, 3.251087e-05
1.731046e+03, 5.252420e-05
1.732777e+03, 6.162246e-05
1.734510e+03, 3.972045e-06
1.736244e+03, 5.551708e-06
1.737980e+03, 8.239589e-06
1.739718e+03, 9.294105e-06
1.741458e+03, 1.074968e-05
1.743199e+03, 2.420854e-05
1.744943e+03, 4.034536e-05
1.746688e+03, 3.365027e-05
1.748434e+03, 4.436825e-05
1.750183e+03, 7.487921e-05
1.751933e+03, 4.373988e-05
1.753685e+03, 8.295987e-06
1.755439e+03, 1.902471e-05
1.757194e+03, 2.183836e-05
1.758951e+03, 2.269960e-05
1.760710e+03, 3.922880e-05
1.762471e+03, 3.994819e-05
1.764233e+03, 6.189852e-05
1.765998e+03, 1.230734e-04
1.767764e+03, 1.496712e-04
1.769531e+03, 1.413155e-04
1.771301e+03, 6.067151e-05
1.773072e+03, 1.276867e-05
1.774845e+03, 2.218191e-05
1.776620e+03, 4.064314e-05
1.778397e+03, 4.558627e-05
1.780175e+03, 7.768181e-05
1.781955e+03, 1.286192e-04
1.783737e+03, 1.581937e-04
1.785521e+03, 8.012103e-05
1.787306e+03, 3.223177e-04
1.789094e+03, 2.880539e-04
1.790883e+03, 1.802447e-04
1.792674e+03, 2.768505e-05
1.794466e+03, 6.282632e-05
1.796261e+03, 1.006607e-04
1.798057e+03, 9.317977e-05
1.799855e+03, 2.186247e-04
1.801655e+03, 4.036674e-04
1.803457e+03, 3.126338e-04
1.805260e+03, 3.940322e-04
1.807065e+03, 5.205200e-04
1.808872e+03, 5.970972e-04
1.810681e+03, 6.200274e-04
1.812492e+03, 5.343615e-05
1.814304e+03, 8.078660e-05
1.816119e+03, 1.229776e-04
1.817935e+03, 4.434319e-04
1.819753e+03, 1.875872e-04
1.821573e+03, 3.423551e-04
1.823394e+03, 9.712112e-04
1.825218e+03, 8.580160e-04
1.827043e+03, 2.619551e-04
1.828870e+03, 5.024138e-04
1.830699e+03, 1.276032e-03
1.832529e+03, 1.461141e-04
1.834362e+03, 1.217407e-04
1.836196e+03, 1.799331e-04
1.838032e+03, 3.183074e-04
1.839871e+03, 5.239580e-04
1.841710e+03, 5.991597e-04
1.843552e+03, 1.457683e-03
1.845396e+03, 2.730281e-03
1.847241e+03, 2.475648e-03
1.849088e+03, 2.551161e-03
1.850937e+03, 1.687899e-03
1.852788e+03, 9.561525e-04
1.854641e+03, 2.243975e-04
1.856496e+03, 2.657454e-04
1.858352e+03, 4.774708e-04
1.860211e+03, 1.047546e-03
1.862071e+03, 1.317647e-03
1.863933e+03, 1.481092e-03
1.865797e+03, 1.983987e-03
1.867663e+03, 6.394889e-03
1.869530e+03, 6.535405e-03
1.871400e+03, 6.041030e-03
1.873271e+03, 2.365824e-03
1.875144e+03, 1.447316e-03
1.877020e+03, 6.304443e-04
1.878897e+03, 7.773836e-04
1.880776e+03, 1.497304e-03
1.882656e+03, 2.859425e-03
1.884539e+03, 6.174503e-03
1.886424e+03, 3.812306e-03
1.888310e+03, 4.878756e-03
1.890198e+03, 8.828092e-03
1.892088e+03, 1.824326e-02
1.893981e+03, 1.232124e-02
1.895875e+03, 4.917539e-03
1.897770e+03, 2.594406e-03
1.899668e+03, 1.659674e-03
1.901568e+03, 3.300218e-03
1.903469e+03, 5.924945e-03
1.905373e+03, 4.971075e-03
1.907278e+03, 6.002112e-03
1.909186e+03, 2.116487e-02
1.911095e+03, 1.904851e-02
1.913006e+03, 3.496815e-02
1.914919e+03, 3.181551e-02
1.916834e+03, 2.933679e-02
1.918751e+03, 1.761729e-02
1.920669e+03, 1.124477e-02
1.922590e+03, 7.556229e-03
1.924513e+03, 1.218432e-02
1.926437e+03, 1.469871e-02
1.928364e+03, 1.829998e-02
1.930292e+03, 5.089900e-02
1.932222e+03, 5.682539e-02
1.934154e+03, 2.463186e-02
1.936089e+03, 3.681855e-02
1.938025e+03, 2.845263e-02
1.939963e+03, 7.287851e-02
1.941903e+03, 9.383093e-02
1.943845e+03, 2.399854e-02
1.945788e+03, 1.168551e-02
1.947734e+03, 2.269607e-02
1.949682e+03, 1.404672e-02
1.951632e+03, 3.461982e-02
1.953583e+03, 8.542035e-02
1.955537e+03, 7.499019e-02
1.957492e+03, 8.159622e-02
1.959450e+03, 6.696125e-02
1.961409e+03, 3.952210e-02
1.963371e+03, 8.367084e-02
1.965334e+03, 1.059912e-01
1.967299e+03, 7.904769e-02
1.969267e+03, 5.012548e-02
1.971236e+03, 1.235045e-01
1.973207e+03, 9.140772e-02
1.975180e+03, 1.571874e-01
1.977156e+03, 1.873216e-01
1.979133e+03, 5.089357e-01
1.981112e+03, 4.281945e-01
1.983093e+03, 4.542572e-01
1.985076e+03, 9.433944e-01
1.987061e+03, 4.340920e-01
1.989048e+03, 5.291355e-01
1.991037e+03, 1.833884e-01
1.993028e+03, 2.037402e-01
1.995021e+03, 1.158738e-01
1.997016e+03, 1.369171e-01
1.999013e+03, 1.479878e-01
2.001012e+03, 1.886469e-01
2.003013e+03, 1.919169e-01
2.005016e+03, 2.392394e-01
2.007021e+03, 3.553596e-01
2.009028e+03, 3.305552e-01
2.011037e+03, 7.146287e-01
2.013048e+03, 8.537223e-01
2.015062e+03, 4.111529e-01
2.017077e+03, 1.402176e-01
2.019094e+03, 3.151733e-01
2.021113e+03, 1.875792e-01
2.023134e+03, 2.008680e-01
2.025157e+03, 5.993754e-02
2.027182e+03, 3.545625e-02
2.029209e+03, 2.428384e-01
2.031239e+03, 3.485886e-01
2.033270e+03, 5.715567e-01
2.035303e+03, 4.112655e-01
2.037338e+03, 4.932957e-01
2.039376e+03, 7.600518e-01
2.041415e+03, 2.570357e-01
2.043457e+03, 3.314633e-01
2.045500e+03, 2.942403e-01
2.047545e+03, 7.975552e-01
2.049593e+03, 1.789455e+00
2.051643e+03, 7.965072e-01
2.053694e+03, 7.960641e-01
2.055748e+03, 1.132323e+00
2.057804e+03, 2.649655e+00
2.059861e+03, 1.224682e+00
2.061921e+03, 4.488207e-01
2.063983e+03, 5.438967e-01
2.066047e+03, 5.211021e-01
2.068113e+03, 8.508498e-01
2.070181e+03, 7.141007e-01
2.072252e+03, 8.262631e-01
2.074324e+03, 2.892130e-01
2.076398e+03, 5.329232e-01
2.078475e+03, 5.265039e-01
2.080553e+03, 1.913606e+00
2.082634e+03, 5.167341e-01
2.084716e+03, 4.048083e-01
2.086801e+03, 9.514334e-01
2.088888e+03, 1.225873e+00
2.090977e+03, 1.188455e+00
2.093068e+03, 1.164972e+00
2.095161e+03, 3.233191e-01
2.097256e+03, 9.525653e-01
2.099353e+03, 7.826261e-01
2.101452e+03, 7.792763e-01
2.103554e+03, 8.970398e-01
2.105657e+03, 6.313114e-01
2.107763e+03, 3.461433e-01
2.109871e+03, 3.816077e-01
2.111981e+03, 1.106478e+00
2.114093e+03, 6.574069e-01
2.116207e+03, 4.121494e-01
2.118323e+03, 8.038474e-01
2.120441e+03, 1.299877e+00
2.122562e+03, 2.768252e+00
2.124684e+03, 2.882607e+00
2.126809e+03, 3.761614e-01
2.128936e+03, 5.123463e-01
2.131065e+03, 1.096193e+00
2.133196e+03, 1.542418e+00
2.135329e+03, 1.183907e+00
2.137464e+03, 1.483289e+00
2.139602e+03, 4.270602e-01
2.141741e+03, 1.994514e-01
2.143883e+03, 6.837842e-01
2.146027e+03, 1.106563e+00
2.148173e+03, 4.335602e-01
2.150321e+03, 5.687723e-01
2.152472e+03, 1.427001e+00
2.154624e+03, 1.296218e+00
2.156779e+03, 2.573976e+00
2.158935e+03, 1.214691e+00
2.161094e+03, 1.847382e+00
2.163255e+03, 4.949629e-01
2.165419e+03, 9.274032e-01
2.167584e+03, 8.806129e-01
2.169752e+03, 1.153937e+00
2.171921e+03, 1.395990e+00
2.174093e+03, 2.227549e+00
2.176268e+03, 3.976729e+00
2.178444e+03, 1.654752e-01
2.180622e+03, 4.747595e-01
2.182803e+03, 4.349594e-01
2.184986e+03, 9.517062e-01
2.187171e+03, 8.429517e-01
2.189358e+03, 1.666978e+00
2.191547e+03, 2.269929e+00
2.193739e+03, 3.603070e+00
2.195932e+03, 4.437958e+00
2.198128e+03, 4.988697e+00
2.200327e+03, 5.038919e-01
2.202527e+03, 2.085369e+00
2.204729e+03, 1.826392e+00
2.206934e+03, 4.968748e+00
2.209141e+03, 2.857738e+00
2.211350e+03, 6.071915e+00
2.213562e+03, 6.754034e+00
2.215775e+03, 4.049623e+00
2.217991e+03, 6.437371e-01
2.220209e+03, 6.203047e-01
2.222429e+03, 6.272174e-01
2.224651e+03, 1.536888e+00
2.226876e+03, 1.829436e+00
2.229103e+03, 3.392753e+00
2.231332e+03, 2.853641e+00
2.233563e+03, 9.482416e+00
2.235797e+03, 1.642903e+01
2.238033e+03, 1.389870e+00
2.240271e+03, 2.493592e+00
2.242511e+03, 2.772123e+00
2.244754e+03, 6.398259e+00
2.246998e+03, 6.616986e+00
2.249245e+03, 1.657992e+01
2.251495e+03, 2.209316e+01
2.253746e+03, 3.324621e+01
2.256000e+03, 2.431539e+01
2.258256e+03, 5.411945e-01
2.260514e+03, 6.029874e-01
2.262775e+03, 1.564216e+00
2.265037e+03, 2.877222e+00
2.267302e+03, 3.309757e+00
2.269570e+03, 5.081085e+00
2.271839e+03, 7.658753e+00
2.274111e+03, 1.743454e+01
2.276385e+03, 1.254137e+01
2.278662e+03, 1.128697e+01
2.280940e+03, 7.594218e+00
2.283221e+03, 1.051907e+01
2.285504e+03, 1.224361e+01
2.287790e+03, 1.474949e+01
2.290078e+03, 2.089796e+01
2.292368e+03, 5.372987e+01
2.294660e+03, 4.249372e+01
2.296955e+03, 6.074413e+01
2.299252e+03, 1.449557e+01
2.301551e+03, 9.951641e-01
2.303853e+03, 1.526014e+00
2.306156e+03, 3.017475e+00
2.308463e+03, 5.428106e+00
2.310771e+03, 9.675134e+00
2.313082e+03, 1.683399e+01
2.315395e+03, 5.193997e+01
2.317710e+03, 8.605290e+01
2.320028e+03, 5.442808e+01
2.322348e+03, 2.188850e+01
2.324670e+03, 4.090344e+01
2.326995e+03, 4.426526e+01
2.329322e+03, 4.888588e+01
2.331651e+03, 1.541849e+02
2.333983e+03, 1.895853e+02
2.336317e+03, 2.375776e+02
2.338653e+03, 2.103048e+02
2.340992e+03, 7.245630e+02
2.343333e+03, 2.127668e+02
2.345676e+03, 4.522782e+00
2.348022e+03, 3.765355e+00
2.350370e+03, 9.009590e+00
2.352720e+03, 1.034925e+01
2.355073e+03, 1.761810e+01
2.357428e+03, 2.469222e+01
2.359786e+03, 4.145865e+01
2.362145e+03, 5.647652e+01
2.364508e+03, 1.083074e+02
2.366872e+03, 6.100883e+00
2.369239e+03, 2.066484e+01
2.371608e+03, 2.707323e+01
2.373980e+03, 2.956127e+01
2.376354e+03, 5.844354e+01
2.378730e+03, 8.919073e+01
2.381109e+03, 1.342004e+02
2.383490e+03, 3.018170e+02
2.385873e+03, 3.150214e+02
2.388259e+03, 1.624305e+02
2.390648e+03, 6.946216e+01
2.393038e+03, 8.162455e+01
2.395431e+03, 1.268997e+02
2.397827e+03, 4.279140e+02
2.400225e+03, 6.011095e+02
2.402625e+03, 6.329626e+02
2.405027e+03, 2.194781e+03
2.407432e+03, 5.446218e+02
2.409840e+03, 2.870425e+03
2.412250e+03, 3.180585e+02
2.414662e+03, 2.728205e+01
2.417077e+03, 3.142137e+01
2.419494e+03, 3.803733e+01
2.421913e+03, 7.393197e+01
2.424335e+03, 7.485942e+01
2.426759e+03, 2.909629e+02
2.429186e+03, 1.030784e+03
2.431615e+03, 1.275104e+03
2.434047e+03, 5.200490e+02
2.436481e+03, 6.698312e+02
2.438918e+03, 1.235795e+03
2.441356e+03, 2.656967e+03
2.443798e+03, 4.020711e+03
2.446242e+03, 5.063198e+03
2.448688e+03, 2.311326e+03
2.451137e+03, 3.621722e+03
2.453588e+03, 1.098889e+04
2.456041e+03, 8.937021e+03
2.458497e+03, 2.282415e+03
2.460956e+03, 3.555101e+02
2.463417e+03, 2.242601e+02
2.465880e+03, 1.332554e+03
2.468346e+03, 3.510958e+03
2.470814e+03, 1.940938e+03
2.473285e+03, 8.022138e+02
2.475758e+03, 2.014145e+03
2.478234e+03, 2.532445e+03
2.480712e+03, 6.538910e+02
2.483193e+03, 2.172060e+02
2.485676e+03, 2.110291e+02
2.488162e+03, 7.734061e+01
2.490650e+03, 6.418649e+01
2.493141e+03, 2.684906e+02
2.495634e+03, 5.779113e+02
2.498130e+03, 7.222944e+02
2.500628e+03, 7.894456e+02
2.503128e+03, 1.575962e+03
2.505632e+03, 2.725030e+03
2.508137e+03, 2.230984e+03
2.510645e+03, 5.083391e+02
2.513156e+03, 8.034677e+02
2.515669e+03, 2.342318e+03
2.518185e+03, 1.179900e+03
2.520703e+03, 1.437337e+03
2.523224e+03, 2.404273e+02
2.525747e+03, 1.623327e+03
2.528273e+03, 7.819252e+02
2.530801e+03, 1.998211e+03
2.533332e+03, 1.006299e+04
2.535865e+03, 6.573506e+03
2.538401e+03, 1.850223e+04
2.540939e+03, 7.043658e+03
2.543480e+03, 1.248100e+04
2.546024e+03, 4.050413e+03
2.548570e+03, 1.304679e+04
2.551118e+03, 1.501563e+04
2.553669e+03, 6.960501e+04
2.556223e+03, 7.540343e+04
2.558779e+03, 3.962964e+04
2.561338e+03, 5.305317e+04
2.563899e+03, 9.477425e+03
2.566463e+03, 2.154657e+03
2.569030e+03, 5.700455e+03
2.571599e+03, 1.715176e+04
2.574170e+03, 2.286336e+04
2.576745e+03, 3.437443e+04
2.579321e+03, 7.205967e+04
2.581901e+03, 3.938290e+04
2.584483e+03, 3.514872e+04
2.587067e+03, 2.268468e+04
2.589654e+03, 6.279519e+03
2.592244e+03, 9.852011e+03
2.594836e+03, 2.685707e+04
2.597431e+03, 1.232154e+05
2.600028e+03, 8.347443e+04
2.602628e+03, 1.518744e+05
2.605231e+03, 2.446479e+05
2.607836e+03, 1.000649e+05
2.610444e+03, 1.725302e+05
2.613054e+03, 5.266196e+04
2.615667e+03, 1.572551e+05
2.618283e+03, 1.078001e+05
2.620901e+03, 3.150275e+05
2.623522e+03, 2.734300e+05
2.626146e+03, 9.707132e+05
2.628772e+03, 6.767025e+05
2.631401e+03, 8.729523e+05
2.634032e+03, 6.423990e+05
2.636666e+03, 1.433884e+06
2.639303e+03, 4.228759e+06
2.641942e+03, 1.239110e+06
2.644584e+03, 3.150253e+05
2.647229e+03, 3.840203e+04
2.649876e+03, 2.065220e+05
2.652526e+03, 2.234755e+05
2.655178e+03, 1.177104e+06
2.657834e+03, 9.121674e+05
2.660491e+03, 5.474103e+05
2.663152e+03, 9.065629e+05
2.665815e+03, 7.506289e+05
2.668481e+03, 3.384220e+05
2.671149e+03, 7.622133e+04
2.673820e+03, 2.612175e+05
2.676494e+03, 3.943332e+05
2.679171e+03, 3.851352e+05
2.681850e+03, 5.037953e+05
2.684532e+03, 1.732004e+06
2.687216e+03, 1.381933e+06
2.689904e+03, 4.536161e+05
2.692593e+03, 5.263937e+05
2.695286e+03, 3.467504e+05
2.697981e+03, 3.668078e+05
2.700679e+03, 4.954542e+05
2.703380e+03, 5.727747e+05
2.706083e+03, 7.985559e+05
2.708789e+03, 5.975672e+05
2.711498e+03, 3.660546e+05
2.714210e+03, 2.251699e+05
2.716924e+03, 8.767588e+04
2.719641e+03, 9.604058e+03
2.722360e+03, 2.138006e+04
2.725083e+03, 5.492293e+04
2.727808e+03, 2.198128e+05
2.730536e+03, 2.498021e+05
2.733266e+03, 1.992662e+05
2.736000e+03, 1.452959e+05
2.738736e+03, 8.179443e+04
2.741474e+03, 1.546170e+05
2.744216e+03, 3.332878e+04
2.746960e+03, 2.673998e+05
2.749707e+03, 1.538872e+05
2.752457e+03, 1.916684e+05
2.755209e+03, 2.711358e+05
2.757964e+03, 1.839279e+05
2.760722e+03, 7.342377e+05
2.763483e+03, 7.685449e+05
2.766246e+03, 1.576876e+06
2.769013e+03, 1.130910e+06
2.771782e+03, 4.518928e+05
2.774554e+03, 8.784110e+05
2.777328e+03, 1.600786e+06
2.780105e+03, 6.536047e+05
2.782886e+03, 6.045315e+05
2.785668e+03, 8.109904e+05
2.788454e+03, 3.943811e+05
2.791243e+03, 4.622462e+05
2.794034e+03, 9.170747e+04
2.796828e+03, 1.292348e+04
2.799625e+03, 8.959297e+03
2.802424e+03, 3.484569e+04
2.805227e+03, 2.681715e+05
2.808032e+03, 2.777008e+05
2.810840e+03, 3.738964e+05
2.813651e+03, 2.945371e+05
2.816464e+03, 2.851416e+05
2.819281e+03, 2.329487e+05
2.822100e+03, 1.441015e+05
2.824922e+03, 1.330084e+05
2.827747e+03, 9.079750e+04
2.830575e+03, 8.160135e+04
2.833406e+03, 5.612226e+04
2.836239e+03, 4.008422e+04
2.839075e+03, 2.973551e+04
2.841914e+03, 1.915255e+04
2.844756e+03, 1.197927e+04
2.847601e+03, 6.389791e+03
2.850448e+03, 2.185941e+03
2.853299e+03, 4.030553e+02
2.856152e+03, 3.250669e+03
2.859008e+03, 8.505597e+03
2.861867e+03, 1.652729e+04
2.864729e+03, 2.623826e+04
2.867594e+03, 4.326085e+04
2.870462e+03, 6.068548e+04
2.873332e+03, 8.877863e+04
2.876205e+03, 1.122171e+05
2.879082e+03, 1.876937e+05
2.881961e+03, 2.668151e+05
2.884843e+03, 3.882607e+05
2.887727e+03, 5.070363e+05
2.890615e+03, 7.105703e+05
2.893506e+03, 9.065066e+05
2.896399e+03, 1.203044e+06
2.899296e+03, 1.466932e+06
2.902195e+03, 1.811581e+06
2.905097e+03, 2.228624e+06
2.908002e+03, 2.632299e+06
2.910910e+03, 2.007383e+06
2.913821e+03, 1.146631e+06
2.916735e+03, 1.938425e+06
2.919652e+03, 5.419205e+06
2.922571e+03, 6.599764e+06
2.925494e+03, 6.154825e+06
2.928420e+03, 1.990195e+06
2.931348e+03, 2.316704e+06
2.934279e+03, 2.847694e+06
2.937214e+03, 4.421808e+05
2.940151e+03, 1.549506e+06
2.943091e+03, 1.179463e+06
2.946034e+03, 1.664036e+06
2.948980e+03, 5.151565e+05
2.951929e+03, 2.352319e+06
2.954881e+03, 7.285764e+05
2.957836e+03, 9.997975e+05
2.960794e+03, 3.479766e+06
2.963754e+03, 2.155034e+06
2.966718e+03, 2.489589e+05
2.969685e+03, 3.526210e+05
2.972655e+03, 4.809638e+05
2.975627e+03, 9.890145e+05
2.978603e+03, 3.086804e+06
2.981581e+03, 1.272567e+06
2.984563e+03, 3.436691e+05
2.987548e+03, 1.719397e+06
2.990535e+03, 3.279964e+06
2.993526e+03, 1.151247e+06
2.996519e+03, 8.718938e+05
2.999516e+03, 1.828636e+06
3.002515e+03, 3.337365e+05
3.005518e+03, 2.053779e+06
3.008523e+03, 8.138773e+05
3.011532e+03, 2.663371e+06
3.014543e+03, 2.378919e+06
3.017558e+03, 1.189992e+06
3.020575e+03, 2.080060e+05
3.023596e+03, 3.877970e+05
3.026620e+03, 7.760662e+05
3.029646e+03, 3.990470e+06
3.032676e+03, 6.179140e+06
3.035709e+03, 4.346653e+06
3.038744e+03, 1.139043e+06
3.041783e+03, 5.428839e+06
3.044825e+03, 3.509205e+06
3.047870e+03, 1.217607e+06
3.050918e+03, 1.777558e+06
3.053968e+03, 5.234889e+06
3.057022e+03, 4.717622e+06
3.060079e+03, 9.699160e+05
3.063140e+03, 9.597186e+06
3.066203e+03, 2.217698e+07
3.069269e+03, 4.937457e+07
3.072338e+03, 9.411681e+07
3.075410e+03, 7.861000e+07
3.078486e+03, 9.275670e+07
3.081564e+03, 2.591348e+07
3.084646e+03, 3.311235e+07
3.087731e+03, 8.743321e+07
3.090818e+03, 5.346348e+07
3.093909e+03, 1.435494e+07
3.097003e+03, 4.782412e+07
3.100100e+03, 2.416854e+07
3.103200e+03, 1.772281e+07
3.106303e+03, 1.280954e+08
3.109410e+03, 4.907999e+08
3.112519e+03, 6.026512e+08
3.115632e+03, 3.661436e+08
3.118747e+03, 6.997080e+08
3.121866e+03, 8.308821e+08
3.124988e+03, 1.147323e+09
3.128113e+03, 1.130153e+09
3.131241e+03, 6.327652e+08
3.134372e+03, 5.516831e+07
3.137507e+03, 3.563965e+08
3.140644e+03, 9.510938e+08
3.143785e+03, 1.273310e+09
3.146928e+03, 1.005253e+09
3.150075e+03, 2.070494e+09
3.153225e+03, 1.643059e+09
3.156379e+03, 3.465852e+09
3.159535e+03, 1.465393e+09
3.162695e+03, 2.726851e+09
3.165857e+03, 3.166499e+09
3.169023e+03, 3.962075e+09
3.172192e+03, 3.079307e+09
3.175364e+03, 4.261592e+09
3.178540e+03, 3.556594e+09
3.181718e+03, 7.474066e+08
3.184900e+03, 1.161776e+08
3.188085e+03, 6.663484e+08
3.191273e+03, 4.177443e+08
3.194464e+03, 8.172209e+07
3.197659e+03, 1.900731e+08
3.200856e+03, 2.820920e+08
3.204057e+03, 1.773228e+09
3.207261e+03, 3.265160e+09
3.210469e+03, 3.600558e+09
3.213679e+03, 1.588071e+09
3.216893e+03, 5.765402e+08
3.220110e+03, 2.140376e+09
3.223330e+03, 1.402014e+09
3.226553e+03, 4.595738e+08
3.229780e+03, 7.166164e+08
3.233009e+03, 3.260675e+08
3.236242e+03, 4.637049e+07
3.239479e+03, 1.718819e+09
3.242718e+03, 9.812231e+08
3.245961e+03, 2.593289e+08
3.249207e+03, 1.808781e+08
3.252456e+03, 3.532581e+09
3.255708e+03, 7.136406e+09
3.258964e+03, 9.424144e+09
3.262223e+03, 9.557030e+09
3.265485e+03, 1.873235e+09
3.268751e+03, 6.937547e+09
3.272020e+03, 2.087404e+09
3.275292e+03, 7.590269e+08
3.278567e+03, 7.497904e+09
3.281845e+03, 8.351557e+09
3.285127e+03, 6.562117e+09
3.288412e+03, 5.094221e+09
3.291701e+03, 8.277289e+09
3.294993e+03, 6.293176e+09
3.298288e+03, 2.545544e+09
3.301586e+03, 1.595036e+08
3.304887e+03, 6.539628e+07
3.308192e+03, 1.617634e+09
3.311500e+03, 3.905232e+09
3.314812e+03, 2.698170e+09
3.318127e+03, 2.248013e+09
3.321445e+03, 1.578217e+09
3.324766e+03, 7.768505e+09
3.328091e+03, 1.742132e+10
3.331419e+03, 1.632165e+10
3.334751e+03, 1.048374e+10
3.338085e+03, 1.136704e+10
3.341423e+03, 7.993795e+09
3.344765e+03, 6.276158e+09
3.348110e+03, 9.086765e+09
3.351458e+03, 7.937851e+08
3.354809e+03, 1.691415e+09
3.358164e+03, 7.277542e+09
3.361522e+03, 2.312007e+09
3.364884e+03, 2.718338e+09
3.368249e+03, 5.815636e+08
3.371617e+03, 1.287624e+08
3.374988e+03, 4.490623e+08
3.378363e+03, 1.623625e+09
3.381742e+03, 4.085862e+08
3.385124e+03, 2.796032e+09
3.388509e+03, 1.909472e+09
3.391897e+03, 2.066488e+08
3.395289e+03, 3.733190e+08
3.398684e+03, 2.832792e+09
3.402083e+03, 3.652337e+09
3.405485e+03, 1.556445e+09
3.408891e+03, 9.914040e+08
3.412300e+03, 1.823410e+08
3.415712e+03, 2.295551e+07
3.419128e+03, 2.933923e+08
3.422547e+03, 6.290695e+08
3.425969e+03, 3.617475e+08
3.429395e+03, 5.507740e+08
3.432825e+03, 1.414569e+08
3.436257e+03, 6.398041e+07
3.439694e+03, 1.868467e+07
3.443133e+03, 7.083833e+06
3.446576e+03, 2.371063e+07
3.450023e+03, 1.340167e+08
3.453473e+03, 9.634432e+07
3.456927e+03, 2.413933e+08
3.460383e+03, 1.093235e+08
3.463844e+03, 8.515779e+07
3.467308e+03, 4.153291e+07
3.470775e+03, 2.676697e+08
3.474246e+03, 9.064375e+07
3.477720e+03, 3.325871e+07
3.481198e+03, 4.275862e+08
3.484679e+03, 4.383788e+08
3.488164e+03, 2.752232e+08
3.491652e+03, 2.522515e+07
3.495143e+03, 1.040452e+08
3.498639e+03, 8.329148e+07
3.502137e+03, 2.214152e+08
3.505639e+03, 1.803851e+09
3.509145e+03, 1.232232e+09
3.512654e+03, 2.468158e+08
3.516167e+03, 9.861708e+07
3.519683e+03, 4.969833e+08
3.523203e+03, 1.460598e+08
3.526726e+03, 2.191300e+07
3.530253e+03, 4.809831e+08
3.533783e+03, 2.825091e+09
3.537317e+03, 8.174134e+09
3.540854e+03, 9.930417e+09
3.544395e+03, 1.336744e+10
3.547939e+03, 7.922208e+09
3.551487e+03, 4.957472e+09
3.555039e+03, 4.589980e+09
3.558594e+03, 2.778839e+09
3.562152e+03, 2.138625e+09
3.565714e+03, 6.151496e+08
3.569280e+03, 3.253841e+08
3.572849e+03, 2.011089e+08
3.576422e+03, 1.100532e+08
3.579999e+03, 1.293264e+07
3.583579e+03, 1.212870e+08
3.587162e+03, 1.599198e+08
3.590749e+03, 1.849041e+08
3.594340e+03, 1.539617e+07
3.597934e+03, 1.291480e+08
3.601532e+03, 3.508060e+08
3.605134e+03, 5.321841e+07
3.608739e+03, 7.621433e+07
3.612348e+03, 3.960497e+08
3.615960e+03, 1.676547e+09
3.619576e+03, 4.101186e+08
3.623196e+03, 2.567011e+09
3.626819e+03, 4.491043e+09
3.630446e+03, 2.406749e+09
3.634076e+03, 2.089041e+09
3.637710e+03, 5.874743e+09
3.641348e+03, 9.397941e+09
3.644989e+03, 2.278215e+09
3.648634e+03, 4.091209e+08
3.652283e+03, 2.354577e+09
3.655935e+03, 7.695734e+09
3.659591e+03, 1.367790e+10
3.663251e+03, 1.152564e+10
3.666914e+03, 1.444498e+10
3.670581e+03, 6.882422e+09
3.674251e+03, 4.485175e+09
3.677926e+03, 1.456101e+09
3.681604e+03, 1.618262e+08
3.685285e+03, 1.229178e+09
3.688971e+03, 1.655046e+09
3.692660e+03, 4.232288e+09
3.696352e+03, 3.694340e+09
3.700049e+03, 2.647279e+09
3.703749e+03, 6.728939e+08
3.707452e+03, 8.461759e+07
3.711160e+03, 3.832842e+08
3.714871e+03, 3.220664e+08
3.718586e+03, 8.577078e+07
3.722304e+03, 2.220972e+07
3.726027e+03, 1.865501e+08
3.729753e+03, 2.770109e+08
3.733482e+03, 1.126167e+08
3.737216e+03, 3.515916e+07
3.740953e+03, 1.436608e+08
3.744694e+03, 1.116326e+08
3.748439e+03, 3.858458e+07
3.752187e+03, 3.106211e+08
3.755939e+03, 1.025304e+09
3.759695e+03, 8.156634e+08
3.763455e+03, 1.561071e+09
3.767219e+03, 1.428295e+09
3.770986e+03, 6.099983e+09
3.774757e+03, 8.874082e+09
3.778532e+03, 1.087798e+10
3.782310e+03, 1.385961e+10
3.786092e+03, 6.616380e+09
3.789878e+03, 4.177165e+09
3.793668e+03, 1.069264e+10
3.797462e+03, 4.727093e+09
3.801259e+03, 5.609249e+09
3.805061e+03, 1.737466e+10
3.808866e+03, 9.882162e+09
3.812675e+03, 7.097090e+09
3.816487e+03, 2.500360e+09
3.820304e+03, 8.637597e+08
3.824124e+03, 2.545121e+08
3.827948e+03, 4.454531e+08
3.831776e+03, 2.375950e+09
3.835608e+03, 1.959032e+09
3.839444e+03, 3.814077e+09
3.843283e+03, 3.335032e+09
3.847126e+03, 3.466925e+09
3.850973e+03, 1.450099e+09
3.854824e+03, 5.548895e+08
3.858679e+03, 8.011038e+07
3.862538e+03, 1.370103e+08
3.866400e+03, 6.845082e+08
3.870267e+03, 2.095080e+09
3.874137e+03, 1.362394e+09
3.878011e+03, 5.615070e+08
3.881889e+03, 6.472612e+08
3.885771e+03, 3.364817e+08
3.889657e+03, 5.634417e+08
3.893547e+03, 1.552033e+09
3.897440e+03, 4.506912e+08
3.901338e+03, 5.100593e+08
3.905239e+03, 2.219057e+09
3.909144e+03, 2.918298e+09
3.913053e+03, 9.826918e+09
3.916966e+03, 5.624095e+09
3.920883e+03, 7.899136e+08
3.924804e+03, 4.877212e+08
3.928729e+03, 4.007290e+08
3.932658e+03, 8.507765e+08
3.936590e+03, 5.322267e+09
3.940527e+03, 6.568269e+09
3.944467e+03, 1.483748e+09
3.948412e+03, 4.313959e+09
3.952360e+03, 1.060347e+10
3.956313e+03, 8.135713e+09
3.960269e+03, 2.654936e+09
3.964229e+03, 2.092016e+09
3.968194e+03, 7.698702e+09
3.972162e+03, 1.545268e+10
3.976134e+03, 2.467587e+10
3.980110e+03, 3.448425e+10
3.984090e+03, 3.177920e+10
3.988074e+03, 5.232814e+10
3.992062e+03, 3.879370e+10
3.996054e+03, 5.782163e+10
4.000050e+03, 3.591616e+10
4.004050e+03, 7.524661e+10
4.008055e+03, 4.674694e+10
4.012063e+03, 6.559581e+10
4.016075e+03, 8.859818e+10
4.020091e+03, 5.744859e+10
4.024111e+03, 3.162480e+10
4.028135e+03, 1.191986e+10
4.032163e+03, 1.955223e+08
4.036195e+03, 1.405250e+09
4.040231e+03, 1.750731e+10
4.044272e+03, 7.455107e+09
4.048316e+03, 5.451453e+09
4.052364e+03, 5.831883e+10
4.056417e+03, 6.447807e+10
4.060473e+03, 7.512643e+10
4.064533e+03, 3.191322e+10
4.068598e+03, 7.429363e+10
4.072667e+03, 4.289589e+10
4.076739e+03, 6.945022e+10
4.080816e+03, 8.503223e+10
4.084897e+03, 8.204248e+10
4.088982e+03, 9.525154e+10
4.093071e+03, 6.238141e+10
4.097164e+03, 6.423497e+10
4.101261e+03, 3.670816e+10
4.105362e+03, 4.107437e+10
4.109468e+03, 5.376987e+10
4.113577e+03, 3.753959e+10
4.117691e+03, 3.874338e+10
4.121808e+03, 4.534318e+10
4.125930e+03, 4.919055e+10
4.130056e+03, 3.292706e+10
4.134186e+03, 2.306804e+10
4.138320e+03, 3.959393e+10
4.142459e+03, 2.764100e+10
4.146601e+03, 2.623121e+10
4.150748e+03, 2.798529e+10
4.154898e+03, 2.897426e+10
4.159053e+03, 2.707041e+10
4.163212e+03, 2.431711e+10
4.167376e+03, 1.876702e+10
4.171543e+03, 1.452244e+10
4.175714e+03, 1.122582e+10
4.179890e+03, 1.157023e+10
4.184070e+03, 1.045953e+10
4.188254e+03, 8.336132e+09
4.192442e+03, 6.973473e+09
4.196635e+03, 6.140002e+09
4.200831e+03, 4.876577e+09
4.205032e+03, 3.695813e+09
4.209237e+03, 2.909508e+09
4.213447e+03, 2.376418e+09
4.217660e+03, 1.639220e+09
4.221878e+03, 1.355620e+09
4.226100e+03, 6.483968e+08
4.230326e+03, 7.957015e+08
4.234556e+03, 1.443278e+09
4.238791e+03, 2.067171e+09
4.243029e+03, 2.723549e+09
4.247272e+03, 3.366805e+09
4.251520e+03, 2.602168e+09
4.255771e+03, 5.452510e+08
4.260027e+03, 3.518013e+09
4.264287e+03, 6.722822e+09
4.268551e+03, 7.259716e+09
4.272820e+03, 3.319781e+09
4.277093e+03, 1.195618e+09
4.281370e+03, 7.310043e+09
4.285651e+03, 7.557757e+09
4.289937e+03, 1.605279e+09
4.294227e+03, 6.060416e+09
4.298521e+03, 1.553743e+10
4.302819e+03, 1.678944e+10
4.307122e+03, 2.036665e+10
4.311429e+03, 2.974798e+10
4.315741e+03, 3.085940e+10
4.320057e+03, 3.024552e+10
4.324377e+03, 3.764384e+10
4.328701e+03, 3.629055e+10
4.333030e+03, 4.721938e+10
4.337363e+03, 5.289088e+10
4.341700e+03, 4.212091e+10
4.346042e+03, 5.083339e+10
4.350388e+03, 6.333656e+10
4.354738e+03, 3.521844e+10
4.359093e+03, 4.904594e+10
4.363452e+03, 6.309895e+10
4.367815e+03, 7.183933e+10
4.372183e+03, 6.264205e+10
4.376555e+03, 2.282814e+10
4.380932e+03, 4.219654e+10
4.385313e+03, 2.696042e+10
4.389698e+03, 5.901061e+10
4.394088e+03, 8.562307e+10
4.398482e+03, 6.026275e+10
4.402881e+03, 5.919414e+10
4.407283e+03, 2.954184e+10
4.411691e+03, 7.524087e+10
4.416102e+03, 7.565339e+10
4.420518e+03, 1.001675e+11
4.424939e+03, 3.648433e+10
4.429364e+03, 2.030740e+10
4.433793e+03, 5.078239e+10
4.438227e+03, 3.773815e+10
4.442665e+03, 5.455527e+10
4.447108e+03, 6.592399e+10
4.451555e+03, 8.537580e+10
4.456007e+03, 4.121814e+10
4.460463e+03, 4.461269e+10
4.464923e+03, 2.784495e+10
4.469388e+03, 4.078708e+10
4.473857e+03, 5.130240e+10
4.478331e+03, 5.863388e+10
4.482810e+03, 4.591705e+10
4.487292e+03, 6.362243e+10
4.491780e+03, 6.736018e+10
4.496272e+03, 7.797762e+10
4.500768e+03, 1.038921e+11
4.505269e+03, 7.189922e+10
4.509774e+03, 4.307189e+10
4.514284e+03, 5.437119e+10
4.518798e+03, 6.185324e+10
4.523317e+03, 7.100359e+10
4.527840e+03, 7.806306e+10
4.532368e+03, 7.185897e+10
4.536900e+03, 7.558406e+10
4.541437e+03, 1.156549e+11
4.545979e+03, 1.040052e+11
4.550525e+03, 5.797934e+10
4.555075e+03, 6.407580e+10
4.559630e+03, 8.131200e+10
4.564190e+03, 9.814240e+10
4.568754e+03, 1.052546e+11
4.573323e+03, 8.920311e+10
4.577896e+03, 1.196190e+11
4.582474e+03, 8.610702e+10
4.587056e+03, 3.376117e+10
4.591643e+03, 2.771569e+10
4.596235e+03, 2.868574e+10
4.600831e+03, 3.605541e+10
4.605432e+03, 3.227819e+10
4.610038e+03, 2.279206e+10
4.614648e+03, 6.754884e+10
4.619262e+03, 7.207006e+10
4.623882e+03, 8.195958e+10
4.628505e+03, 3.248895e+10
4.633134e+03, 2.900192e+10
4.637767e+03, 2.953448e+10
4.642405e+03, 3.457708e+10
4.647047e+03, 3.903121e+10
4.651694e+03, 4.303530e+10
4.656346e+03, 6.397954e+10
4.661002e+03, 8.043133e+10
4.665663e+03, 7.065438e+10
4.670329e+03, 4.451469e+10
4.674999e+03, 3.466091e+10
4.679674e+03, 4.253238e+10
4.684354e+03, 4.109002e+10
4.689038e+03, 6.589799e+10
4.693727e+03, 7.296992e+10
4.698421e+03, 7.347306e+10
4.703120e+03, 9.101135e+10
4.707823e+03, 1.001094e+11
4.712530e+03, 9.294999e+10
4.717243e+03, 5.108265e+10
4.721960e+03, 6.151392e+10
4.726682e+03, 7.595820e+10
4.731409e+03, 8.754277e+10
4.736140e+03, 9.305976e+10
4.740876e+03, 8.590121e+10
4.745617e+03, 1.082395e+11
4.750363e+03, 1.162034e+11
4.755113e+03, 1.420189e+11
4.759868e+03, 7.841731e+10
4.764628e+03, 2.405924e+10
4.769393e+03, 2.390481e+10
4.774162e+03, 2.741852e+10
4.778936e+03, 3.558936e+10
4.783715e+03, 3.288438e+10
4.788499e+03, 3.150486e+10
4.793288e+03, 3.951958e+10
4.798081e+03, 5.069205e+10
4.802879e+03, 5.649435e+10
4.807682e+03, 2.783709e+10
4.812490e+03, 2.817264e+10
4.817302e+03, 3.275992e+10
4.822119e+03, 3.661845e+10
4.826941e+03, 3.952198e+10
4.831768e+03, 4.310185e+10
4.836600e+03, 5.661424e+10
4.841437e+03, 6.231905e+10
4.846278e+03, 7.420470e+10
4.851124e+03, 4.381253e+10
4.855976e+03, 4.487366e+10
4.860832e+03, 5.605018e+10
4.865692e+03, 5.891379e+10
4.870558e+03, 7.608330e+10
4.875429e+03, 7.951405e+10
4.880304e+03, 9.238636e+10
4.885184e+03, 1.106161e+11
4.890070e+03, 1.412681e+11
4.894960e+03, 1.159607e+11
4.899855e+03, 1.086709e+11
4.904754e+03, 1.173059e+11
4.909659e+03, 1.243660e+11
4.914569e+03, 1.706521e+11
4.919483e+03, 2.099194e+11
4.924403e+03, 2.192531e+11
4.929327e+03, 2.550064e+11
4.934257e+03, 3.337178e+11
4.939191e+03, 3.054372e+11
4.944130e+03, 2.543333e+11
4.949074e+03, 3.548174e+11
4.954023e+03, 2.337334e+11
4.958977e+03, 2.991544e+10
4.963936e+03, 3.251194e+10
4.968900e+03, 3.785374e+10
4.973869e+03, 3.953013e+10
4.978843e+03, 4.298405e+10
4.983822e+03, 4.834798e+10
4.988806e+03, 5.461275e+10
4.993794e+03, 5.582643e+10
4.998788e+03, 5.780160e+10
5.003787e+03, 4.115133e+10
5.008791e+03, 4.191116e+10
5.013800e+03, 4.233600e+10
5.018813e+03, 4.847307e+10
5.023832e+03, 5.036229e+10
5.028856e+03, 5.438959e+10
5.033885e+03, 7.235989e+10
5.038919e+03, 7.844900e+10
5.043958e+03, 7.410978e+10
5.049002e+03, 7.980173e+10
5.054051e+03, 8.235843e+10
5.059105e+03, 7.713230e+10
5.064164e+03, 9.248691e+10
5.069228e+03, 1.175991e+11
5.074297e+03, 1.237697e+11
5.079372e+03, 1.120023e+11
5.084451e+03, 1.571181e+11
5.089535e+03, 1.417968e+11
5.094625e+03, 1.329308e+11
5.099720e+03, 1.415174e+11
5.104819e+03, 1.713731e+11
5.109924e+03, 1.192469e+11
5.115034e+03, 2.276244e+11
5.120149e+03, 1.988956e+11
5.125269e+03, 2.036194e+11
5.130394e+03, 1.605479e+11
5.135525e+03, 3.606590e+11
5.140660e+03, 2.944274e+11
5.145801e+03, 1.835938e+11
5.150947e+03, 1.834868e+11
5.156098e+03, 1.897280e+11
5.161254e+03, 5.373153e+11
5.166415e+03, 2.725828e+11
5.171582e+03, 3.007615e+10
5.176753e+03, 3.477709e+10
5.181930e+03, 2.930351e+10
5.187112e+03, 4.620422e+10
5.192299e+03, 6.151377e+10
5.197491e+03, 6.349946e+10
5.202689e+03, 6.700209e+10
5.207891e+03, 2.873992e+10
5.213099e+03, 7.644924e+10
5.218312e+03, 1.148518e+11
5.223531e+03, 1.495186e+11
5.228754e+03, 1.256487e+11
5.233983e+03, 1.705815e+11
5.239217e+03, 1.737068e+11
5.244456e+03, 1.144835e+11
5.249701e+03, 1.203997e+11
5.254950e+03, 1.814630e+11
5.260205e+03, 2.063072e+11
5.265465e+03, 1.337352e+11
5.270731e+03, 9.361916e+10
5.276002e+03, 1.955904e+11
5.281278e+03, 2.123359e+11
5.286559e+03, 2.525039e+11
5.291846e+03, 2.715930e+11
5.297137e+03, 2.751026e+11
5.302435e+03, 3.128771e+11
5.307737e+03, 3.938808e+11
5.313045e+03, 2.247272e+11
5.318358e+03, 2.458076e+11
5.323676e+03, 2.632275e+11
5.329000e+03, 1.523731e+11
5.334329e+03, 2.686637e+11
5.339663e+03, 3.131850e+11
5.345003e+03, 2.976327e+11
5.350348e+03, 3.393454e+11
5.355698e+03, 4.274774e+11
5.361054e+03, 2.466541e+11
5.366415e+03, 2.653586e+11
5.371781e+03, 2.063980e+11
5.377153e+03, 3.317751e+11
5.382530e+03, 3.727253e+11
5.387913e+03, 4.491269e+11
5.393301e+03, 3.746308e+11
5.398694e+03, 2.473604e+11
5.404093e+03, 3.483905e+11
5.409497e+03, 2.269285e+11
5.414906e+03, 4.033566e+11
5.420321e+03, 4.565036e+11
5.425741e+03, 4.108705e+11
5.431167e+03, 3.082780e+11
5.436598e+03, 3.739927e+11
5.442035e+03, 4.912632e+11
5.447477e+03, 3.021272e+11
5.452924e+03, 9.045339e+10
5.458377e+03, 9.489735e+10
5.463836e+03, 1.213552e+11
5.469300e+03, 1.382422e+11
5.474769e+03, 1.432013e+11
5.480244e+03, 1.504383e+11
5.485724e+03, 1.651167e+11
5.491210e+03, 2.030508e+11
5.496701e+03, 1.766489e+11
5.502198e+03, 1.217277e+11
5.507700e+03, 1.372217e+11
5.513207e+03, 1.649604e+11
5.518721e+03, 1.804902e+11
5.524239e+03, 1.996854e+11
5.529764e+03, 2.129397e+11
5.535293e+03, 2.085220e+11
5.540829e+03, 2.474191e+11
5.546370e+03, 2.697908e+11
5.551916e+03, 2.375810e+11
5.557468e+03, 2.938007e+11
5.563025e+03, 2.962512e+11
5.568588e+03, 2.580847e+11
5.574157e+03, 2.478860e+11
5.579731e+03, 2.668032e+11
5.585311e+03, 2.719184e+11
5.590896e+03, 2.506532e+11
5.596487e+03, 2.359626e+11
5.602083e+03, 1.640788e+11
5.607686e+03, 1.675412e+11
5.613293e+03, 1.738110e+11
5.618907e+03, 1.589202e+11
5.624525e+03, 1.703716e+11
5.630150e+03, 1.698901e+11
5.635780e+03, 1.795317e+11
5.641416e+03, 1.683302e+11
5.647057e+03, 1.930040e+11
5.652704e+03, 2.187223e+11
5.658357e+03, 2.282164e+11
5.664015e+03, 1.893116e+11
5.669679e+03, 1.932845e+11
5.675349e+03, 2.050217e+11
5.681024e+03, 2.325404e+11
5.686705e+03, 2.322616e+11
5.692392e+03, 2.647762e+11
5.698085e+03, 2.720748e+11
5.703783e+03, 2.672465e+11
5.709486e+03, 2.644093e+11
5.715196e+03, 2.660515e+11
5.720911e+03, 2.965883e+11
5.726632e+03, 2.946853e+11
5.732359e+03, 3.189172e+11
5.738091e+03, 3.379274e+11
5.743829e+03, 3.360352e+11
5.749573e+03, 3.321749e+11
5.755323e+03, 3.318222e+11
5.761078e+03, 2.402261e+11
5.766839e+03, 2.155587e+11
5.772606e+03, 2.256890e+11
5.778378e+03, 2.484791e+11
5.784157e+03, 2.596110e+11
5.789941e+03, 2.616099e+11
5.795731e+03, 2.632434e+11
5.801527e+03, 2.534537e+11
5.807328e+03, 2.467015e+11
5.813135e+03, 1.953941e+11
5.818949e+03, 1.810509e+11
5.824768e+03, 1.740638e+11
5.830592e+03, 1.595644e+11
5.836423e+03, 1.449299e+11
5.842259e+03, 1.159353e+11
5.848102e+03, 9.475080e+10
5.853950e+03, 6.987545e+10
5.859804e+03, 5.325754e+10
5.865663e+03, 3.582474e+10
5.871529e+03, 2.099646e+10
5.877401e+03, 1.033126e+10
5.883278e+03, 3.979358e+09
5.889161e+03, 7.452746e+08
5.895050e+03, 3.825858e+08
5.900945e+03, 1.638566e+09
5.906846e+03, 6.630820e+09
5.912753e+03, 1.586550e+10
5.918666e+03, 3.005187e+10
5.924585e+03, 4.728192e+10
5.930509e+03, 6.512954e+10
5.936440e+03, 8.628579e+10
5.942376e+03, 1.056756e+11
5.948319e+03, 1.182925e+11
5.954267e+03, 1.328896e+11
5.960221e+03, 1.421389e+11
5.966181e+03, 1.615758e+11
5.972148e+03, 1.741557e+11
5.978120e+03, 1.855653e+11
5.984098e+03, 2.085496e+11
5.990082e+03, 2.273154e+11
5.996072e+03, 2.359581e+11
6.002068e+03, 2.474770e+11
6.008070e+03, 2.429420e+11
6.014078e+03, 2.778042e+11
6.020092e+03, 2.914074e+11
6.026112e+03, 3.201584e+11
6.032139e+03, 3.461514e+11
6.038171e+03, 3.572009e+11
6.044209e+03, 3.644532e+11
6.050253e+03, 3.986145e+11
6.056303e+03, 4.198662e+11
6.062360e+03, 4.355433e+11
6.068422e+03, 4.526108e+11
6.074490e+03, 5.148679e+11
6.080565e+03, 5.663332e+11
6.086645e+03, 6.166303e+11
6.092732e+03, 5.353895e+11
6.098825e+03, 5.333709e+11
6.104924e+03, 4.840131e+11
6.111029e+03, 5.529632e+11
6.117140e+03, 6.327023e+11
6.123257e+03, 5.263531e+11
6.129380e+03, 6.607084e+11
6.135509e+03, 6.905945e+11
6.141645e+03, 7.711922e+11
6.147787e+03, 7.497010e+11
6.153934e+03, 4.475739e+11
6.160088e+03, 3.226390e+11
6.166248e+03, 2.300544e+11
6.172415e+03, 2.591814e+11
6.178587e+03, 2.501883e+11
6.184766e+03, 2.648349e+11
6.190950e+03, 2.160411e+11
6.197141e+03, 2.319831e+11
6.203338e+03, 2.478949e+11
6.209542e+03, 2.644998e+11
6.215751e+03, 2.349688e+11
6.221967e+03, 2.361646e+11
6.228189e+03, 2.171567e+11
6.234417e+03, 2.331078e+11
6.240652e+03, 2.373039e+11
6.246892e+03, 2.478268e+11
6.253139e+03, 2.694515e+11
6.259392e+03, 2.811265e+11
6.265652e+03, 2.990577e+11
6.271917e+03, 3.068446e+11
6.278189e+03, 3.051310e+11
6.284467e+03, 3.183131e+11
6.290752e+03, 3.295874e+11
6.297043e+03, 3.255550e+11
6.303340e+03, 3.528833e+11
6.309643e+03, 3.606852e+11
6.315953e+03, 4.202875e+11
6.322269e+03, 3.780661e+11
6.328591e+03, 3.836204e+11
6.334920e+03, 4.163654e+11
6.341254e+03, 4.518229e+11
6.347596e+03, 5.137910e+11
6.353943e+03, 4.303744e+11
6.360297e+03, 3.599632e+11
6.366658e+03, 3.764528e+11
6.373024e+03, 3.900248e+11
6.379397e+03, 3.905448e+11
6.385777e+03, 3.638682e+11
6.392162e+03, 3.632046e+11
6.398555e+03, 4.456898e+11
6.404953e+03, 4.759834e+11
6.411358e+03, 5.688272e+11
6.417769e+03, 4.820025e+11
6.424187e+03, 4.458862e+11
6.430611e+03, 4.725809e+11
6.437042e+03, 5.120254e+11
6.443479e+03, 5.797287e+11
6.449923e+03, 5.708468e+11
6.456372e+03, 5.620655e+11
6.462829e+03, 5.454747e+11
6.469292e+03, 7.123359e+11
6.475761e+03, 8.174265e+11
6.482237e+03, 6.264331e+11
6.488719e+03, 5.450579e+11
6.495208e+03, 6.204151e+11
6.501703e+03, 7.109463e+11
6.508205e+03, 8.116743e+11
6.514713e+03, 7.500651e+11
6.521227e+03, 7.797256e+11
6.527749e+03, 8.678959e+11
6.534276e+03, 9.339709e+11
6.540811e+03, 1.091960e+12
6.547352e+03, 8.697989e+11
6.553899e+03, 7.439997e+11
6.560453e+03, 8.100331e+11
6.567013e+03, 7.380898e+11
6.573580e+03, 6.276349e+11
6.580154e+03, 7.119281e+11
6.586734e+03, 7.855038e+11
6.593321e+03, 8.145125e+11
6.599914e+03, 7.582422e+11
6.606514e+03, 7.721044e+11
6.613120e+03, 7.502525e+11
6.619734e+03, 7.088552e+11
6.626353e+03, 6.680499e+11
6.632980e+03, 7.181844e+11
6.639613e+03, 6.521572e+11
6.646252e+03, 7.026706e+11
6.652899e+03, 5.020764e+11
6.659551e+03, 4.534454e+11
6.666211e+03, 5.163491e+11
6.672877e+03, 5.248973e+11
6.679550e+03, 5.095929e+11
6.686230e+03, 3.891920e+11
6.692916e+03, 4.359485e+11
6.699609e+03, 4.471097e+11
6.706308e+03, 3.335206e+11
6.713015e+03, 3.349028e+11
6.719728e+03, 3.720306e+11
6.726447e+03, 3.884583e+11
6.733174e+03, 4.134150e+11
6.739907e+03, 4.289780e+11
6.746647e+03, 4.443995e+11
6.753394e+03, 4.144078e+11
6.760147e+03, 4.359771e+11
6.766907e+03, 4.667189e+11
6.773674e+03, 5.094809e+11
6.780448e+03, 4.901176e+11
6.787228e+03, 4.147503e+11
6.794015e+03, 4.294909e+11
6.800809e+03, 4.630799e+11
6.807610e+03, 4.772391e+11
6.814418e+03, 4.966293e+11
6.821232e+03, 4.833059e+11
6.828053e+03, 5.014035e+11
6.834882e+03, 5.244542e+11
6.841716e+03, 5.297542e+11
6.848558e+03, 5.482167e+11
6.855407e+03, 4.682769e+11
6.862262e+03, 4.673244e+11
6.869124e+03, 4.988336e+11
6.875994e+03, 5.336890e+11
6.882869e+03, 5.340538e+11
6.889752e+03, 5.188233e+11
6.896642e+03, 5.681655e+11
6.903539e+03, 5.746061e+11
6.910442e+03, 6.691107e+11
6.917353e+03, 6.526861e+11
6.924270e+03, 6.790136e+11
6.931194e+03, 7.526103e+11
6.938126e+03, 7.738755e+11
6.945064e+03, 9.308306e+11
6.952009e+03, 1.033828e+12
6.958961e+03, 1.035161e+12
6.965920e+03, 1.198944e+12
6.972886e+03, 1.276032e+12
6.979859e+03, 1.366465e+12
6.986838e+03, 1.610051e+12
6.993825e+03, 1.266554e+12
7.000819e+03, 1.416819e+12
7.007820e+03, 1.470193e+12
7.014828e+03, 1.674550e+12
7.021843e+03, 1.827326e+12
7.028864e+03, 2.214637e+12
7.035893e+03, 2.048543e+12
7.042929e+03, 2.417440e+12
7.049972e+03, 2.769390e+12
7.057022e+03, 1.139772e+12
7.064079e+03, 5.595734e+11
7.071143e+03, 6.422587e+11
7.078214e+03, 6.862179e+11
7.085292e+03, 7.629981e+11
7.092378e+03, 5.097976e+11
7.099470e+03, 5.161979e+11
7.106570e+03, 5.603781e+11
7.113676e+03, 5.939413e+11
7.120790e+03, 6.613181e+11
7.127911e+03, 5.447442e+11
7.135039e+03, 4.960913e+11
7.142174e+03, 5.122984e+11
7.149316e+03, 5.413027e+11
7.156465e+03, 5.812762e+11
7.163622e+03, 5.566491e+11
7.170785e+03, 5.884390e+11
7.177956e+03, 6.313184e+11
7.185134e+03, 6.821856e+11
7.192319e+03, 7.323729e+11
7.199511e+03, 6.741700e+11
7.206711e+03, 6.569996e+11
7.213918e+03, 6.909352e+11
7.221132e+03, 7.455139e+11
7.228353e+03, 8.020859e+11
7.235581e+03, 8.493304e+11
7.242817e+03, 9.099151e+11
7.250059e+03, 1.078717e+12
7.257309e+03, 1.161956e+12
7.264567e+03, 1.270296e+12
7.271831e+03, 1.197495e+12
7.279103e+03, 1.309275e+12
7.286382e+03, 1.416736e+12
7.293669e+03, 1.601980e+12
7.300962e+03, 1.903321e+12
7.308263e+03, 2.011744e+12
7.315572e+03, 2.304760e+12
7.322887e+03, 2.629729e+12
7.330210e+03, 2.724031e+12
7.337540e+03, 3.016866e+12
7.344878e+03, 2.762991e+12
7.352223e+03, 3.002677e+12
7.359575e+03, 3.397373e+12
7.366934e+03, 3.844120e+12
7.374301e+03, 4.154607e+12
7.381676e+03, 3.855256e+12
7.389057e+03, 4.117280e+12
7.396446e+03, 4.445470e+12
7.403843e+03, 4.020877e+12
7.411247e+03, 4.517621e+12
7.418658e+03, 3.718169e+12
7.426077e+03, 4.023243e+12
7.433503e+03, 4.663000e+12
7.440936e+03, 4.428202e+12
7.448377e+03, 3.803385e+12
7.455825e+03, 3.878924e+12
7.463281e+03, 3.943307e+12
7.470745e+03, 4.319024e+12
7.478215e+03, 4.208119e+12
7.485694e+03, 4.045307e+12
7.493179e+03, 4.306386e+12
7.500672e+03, 4.589149e+12
7.508173e+03, 4.396301e+12
7.515681e+03, 4.086551e+12
7.523197e+03, 4.490766e+12
7.530720e+03, 4.309568e+12
7.538251e+03, 4.506688e+12
7.545789e+03, 4.886258e+12
7.553335e+03, 4.787177e+12
7.560888e+03, 5.084075e+12
7.568449e+03, 4.776856e+12
7.576018e+03, 3.936785e+12
7.583594e+03, 4.452932e+12
7.591177e+03, 2.351030e+12
7.598768e+03, 1.843974e+12
7.606367e+03, 1.841968e+12
7.613973e+03, 1.843390e+12
7.621587e+03, 1.833523e+12
7.629209e+03, 1.264225e+12
7.636838e+03, 9.603539e+11
7.644475e+03, 7.353816e+11
7.652120e+03, 4.292026e+11
7.659772e+03, 1.357468e+11
7.667431e+03, 2.309094e+10
7.675099e+03, 1.559524e+11
7.682774e+03, 3.604756e+11
7.690457e+03, 3.246011e+11
7.698147e+03, 6.945082e+10
7.705845e+03, 1.294048e+11
7.713551e+03, 5.108341e+11
7.721265e+03, 8.612512e+11
7.728986e+03, 1.159575e+12
7.736715e+03, 1.459055e+12
7.744452e+03, 1.531396e+12
7.752196e+03, 1.334036e+12
7.759948e+03, 1.427892e+12
7.767708e+03, 1.557144e+12
7.775476e+03, 1.733385e+12
7.783252e+03, 1.677508e+12
7.791035e+03, 1.701445e+12
7.798826e+03, 1.424860e+12
7.806625e+03, 1.800116e+12
7.814431e+03, 2.392908e+12
7.822246e+03, 2.326413e+12
7.830068e+03, 2.019956e+12
7.837898e+03, 2.098774e+12
7.845736e+03, 2.192722e+12
7.853582e+03, 2.443117e+12
7.861435e+03, 2.593820e+12
7.869297e+03, 2.539136e+12
7.877166e+03, 2.870253e+12
7.885043e+03, 3.251164e+12
7.892928e+03, 3.526354e+12
7.900821e+03, 3.532545e+12
7.908722e+03, 3.227468e+12
7.916631e+03, 3.053712e+12
7.924547e+03, 3.217460e+12
7.932472e+03, 3.528173e+12
7.940404e+03, 3.679002e+12
7.948345e+03, 2.558855e+12
7.956293e+03, 4.171823e+12
7.964249e+03, 4.702040e+12
7.972214e+03, 4.819620e+12
7.980186e+03, 4.788214e+12
7.988166e+03, 4.568529e+12
7.996154e+03, 4.889475e+12
8.004150e+03, 5.227393e+12
8.012154e+03, 5.353487e+12
8.020167e+03, 5.896032e+12
8.028187e+03, 6.126291e+12
8.036215e+03, 6.263365e+12
8.044251e+03, 6.484670e+12
8.052295e+03, 6.236039e+12
8.060348e+03, 6.962528e+12
8.068408e+03, 6.982202e+12
8.076476e+03, 7.081633e+12
8.084553e+03, 7.993325e+12
8.092637e+03, 8.372811e+12
8.100730e+03, 9.087359e+12
8.108831e+03, 9.229205e+12
8.116940e+03, 8.260849e+12
8.125057e+03, 8.894402e+12
8.133182e+03, 1.075324e+13
8.141315e+03, 1.065442e+13
8.149456e+03, 1.159209e+13
8.157606e+03, 1.128977e+13
8.165763e+03, 1.062092e+13
8.173929e+03, 1.061639e+13
8.182103e+03, 6.489533e+12
8.190285e+03, 6.621004e+12
8.198475e+03, 3.927455e+12
8.206674e+03, 5.867350e+12
8.214880e+03, 6.637122e+12
8.223095e+03, 7.205322e+12
8.231318e+03, 8.315804e+12
8.239550e+03, 8.826561e+12
8.247789e+03, 8.976203e+12
8.256037e+03, 7.890308e+12
8.264293e+03, 8.713090e+12
8.272557e+03, 7.028132e+12
8.280830e+03, 6.742461e+12
8.289111e+03, 6.546574e+12
8.297400e+03, 6.752508e+12
8.305697e+03, 6.193164e+12
8.314003e+03, 6.747045e+12
8.322317e+03, 7.266029e+12
8.330639e+03, 7.198669e+12
8.338970e+03, 6.816841e+12
8.347309e+03, 6.552002e+12
8.355656e+03, 6.386430e+12
8.364012e+03, 6.958623e+12
8.372376e+03, 7.060221e+12
8.380748e+03, 6.680887e+12
8.389129e+03, 5.859341e+12
8.397518e+03, 6.768500e+12
8.405916e+03, 7.434153e+12
8.414322e+03, 7.221855e+12
8.422736e+03, 6.736212e+12
8.431159e+03, 6.432822e+12
8.439590e+03, 3.618146e+12
8.448029e+03, 2.665176e+12
8.456477e+03, 2.246774e+12
8.464934e+03, 2.314422e+12
8.473399e+03, 2.267708e+12
8.481872e+03, 2.592392e+12
8.490354e+03, 2.844533e+12
8.498845e+03, 2.963153e+12
8.507343e+03, 2.934232e+12
8.515851e+03, 2.882259e+12
8.524367e+03, 2.824252e+12
8.532891e+03, 2.919188e+12
8.541424e+03, 3.330530e+12
8.549965e+03, 3.722064e+12
8.558515e+03, 3.955309e+12
8.567074e+03, 4.194626e+12
8.575641e+03, 4.312040e+12
8.584216e+03, 4.410692e+12
8.592801e+03, 4.469372e+12
8.601393e+03, 4.604702e+12
8.609995e+03, 4.926846e+12
8.618605e+03, 5.228801e+12
8.627223e+03, 5.651608e+12
8.635851e+03, 5.471698e+12
8.644486e+03, 5.943837e+12
8.653131e+03, 5.928929e+12
8.661784e+03, 6.015371e+12
8.670446e+03, 6.449336e+12
8.679116e+03, 6.198704e+12
8.687795e+03, 6.229270e+12
8.696483e+03, 3.990555e+12
8.705180e+03, 4.115436e+12
8.713885e+03, 3.702193e+12
8.722599e+03, 4.239475e+12
8.731321e+03, 5.237994e+12
8.740053e+03, 4.837446e+12
8.748793e+03, 5.492799e+12
8.757542e+03, 6.531632e+12
8.766299e+03, 6.854305e+12
8.775065e+03, 8.629184e+12
8.783840e+03, 7.906943e+12
8.792624e+03, 8.610491e+12
8.801417e+03, 6.705201e+12
8.810218e+03, 7.152506e+12
8.819029e+03, 1.034874e+13
8.827848e+03, 7.355919e+12
8.836675e+03, 1.114347e+13
8.845512e+03, 9.382222e+12
8.854358e+03, 9.377634e+12
8.863212e+03, 4.545571e+12
8.872075e+03, 3.805205e+12
8.880947e+03, 4.327778e+12
8.889828e+03, 4.296701e+12
8.898718e+03, 4.707197e+12
8.907617e+03, 5.915575e+12
8.916524e+03, 5.348244e+12
8.925441e+03, 6.471510e+12
8.934366e+03, 6.074717e+12
8.943301e+03, 5.018930e+12
8.952244e+03, 5.515823e+12
8.961196e+03, 5.697462e+12
8.970157e+03, 5.949236e+12
8.979128e+03, 6.448058e+12
8.988107e+03, 7.739798e+12
8.997095e+03, 7.644994e+12
9.006092e+03, 7.776148e+12
9.015098e+03, 8.052529e+12
9.024113e+03, 7.822774e+12
9.033137e+03, 7.535600e+12
9.042170e+03, 8.976076e+12
9.051213e+03, 9.502937e+12
9.060264e+03, 8.981450e+12
9.069324e+03, 1.018600e+13
9.078393e+03, 1.026002e+13
9.087472e+03, 1.011858e+13
9.096559e+03, 1.151951e+13
9.105656e+03, 1.216675e+13
9.114761e+03, 1.311481e+13
9.123876e+03, 1.336811e+13
9.133000e+03, 1.292012e+13
9.142133e+03, 1.139208e+13
9.151275e+03, 1.377773e+13
9.160426e+03, 1.506274e+13
9.169587e+03, 1.557422e+13
9.178757e+03, 1.392864e+13
9.187935e+03, 1.589969e+13
9.197123e+03, 1.534174e+13
9.206320e+03, 1.393634e+13
9.215527e+03, 1.154802e+13
9.224742e+03, 9.332178e+12
9.233967e+03, 7.964961e+12
9.243201e+03, 9.358070e+12
9.252444e+03, 8.548898e+12
9.261697e+03, 9.328546e+12
9.270958e+03, 1.009092e+13
9.280229e+03, 8.721020e+12
9.289509e+03, 8.544346e+12
9.298799e+03, 7.390874e+12
9.308098e+03, 7.524750e+12
9.317406e+03, 7.876713e+12
9.326723e+03, 7.687426e+12
9.336050e+03, 8.686630e+12
9.345386e+03, 9.387515e+12
9.354731e+03, 8.554542e+12
9.364086e+03, 8.598677e+12
9.373450e+03, 8.874165e+12
9.382824e+03, 8.869516e+12
9.392206e+03, 8.756452e+12
9.401599e+03, 9.033517e+12
9.411000e+03, 1.024653e+13
9.420411e+03, 1.052810e+13
9.429832e+03, 1.078176e+13
9.439262e+03, 1.066708e+13
9.448701e+03, 1.033558e+13
9.458149e+03, 1.106468e+13
9.467608e+03, 1.071367e+13
9.477075e+03, 1.230881e+13
9.486552e+03, 1.241082e+13
9.496039e+03, 1.213127e+13
9.505535e+03, 1.285501e+13
9.515040e+03, 1.233908e+13
9.524555e+03, 1.336275e+13
9.534080e+03, 1.353603e+13
9.543614e+03, 1.325300e+13
9.553158e+03, 1.349471e+13
9.562711e+03, 1.425762e+13
9.572274e+03, 1.512966e+13
9.581846e+03, 1.560019e+13
9.591428e+03, 1.464516e+13
9.601019e+03, 1.218576e+13
9.610620e+03, 1.456298e+13
9.620231e+03, 1.535509e+13
9.629851e+03, 1.594036e+13
9.639481e+03, 1.285205e+13
9.649120e+03, 1.416318e+13
9.658769e+03, 1.652688e+13
9.668428e+03, 1.655695e+13
9.678097e+03, 1.444078e+13
9.687775e+03, 1.524827e+13
9.697463e+03, 1.742533e+13
9.707160e+03, 1.449067e+13
9.716867e+03, 1.658227e+13
9.726584e+03, 1.344508e+13
9.736311e+03, 1.411789e+13
9.746047e+03, 1.221530e+13
9.755793e+03, 1.358430e+13
9.765549e+03, 1.453715e+13
9.775314e+03, 1.312992e+13
9.785090e+03, 1.275762e+13
9.794875e+03, 1.406617e+13
9.804670e+03, 1.534282e+13
9.814474e+03, 1.340441e+13
9.824289e+03, 1.349006e+13
9.834113e+03, 1.281225e+13
9.843947e+03, 1.314486e+13
9.853791e+03, 1.433652e+13
9.863645e+03, 1.427905e+13
9.873509e+03, 1.445520e+13
9.883382e+03, 1.596616e+13
9.893265e+03, 1.251850e+13
9.903159e+03, 2.889041e+12
9.913062e+03, 1.874625e+12
9.922975e+03, 2.043439e+12
9.932898e+03, 2.638564e+12
9.942831e+03, 3.699847e+12
9.952774e+03, 4.962265e+12
9.962726e+03, 4.645906e+12
9.972689e+03, 3.820410e+12
9.982662e+03, 3.545318e+12
9.992644e+03, 3.924750e+12
1.000264e+04, 4.330518e+12
1.001264e+04, 4.342499e+12
1.002265e+04, 5.027565e+12
1.003268e+04, 6.577843e+12
1.004271e+04, 5.277744e+12
1.005275e+04, 4.229075e+12
1.006280e+04, 3.217768e+12
1.007287e+04, 5.437871e+12
1.008294e+04, 7.142795e+12
1.009302e+04, 5.144389e+12
1.010311e+04, 8.803004e+12
1.011322e+04, 5.131339e+12
1.012333e+04, 6.098383e+12
1.013345e+04, 5.482572e+12
1.014359e+04, 5.816127e+12
1.015373e+04, 6.494154e+12
1.016389e+04, 4.355028e+12
1.017405e+04, 7.073802e+12
1.018422e+04, 4.682308e+12
1.019441e+04, 5.934272e+12
1.020460e+04, 5.678250e+12
1.021481e+04, 7.019528e+12
1.022502e+04, 5.594896e+12
1.023525e+04, 5.872378e+12
1.024548e+04, 8.815824e+12
1.025573e+04, 5.236951e+12
1.026598e+04, 3.990974e+12
1.027625e+04, 5.039151e+12
1.028652e+04, 5.362568e+12
1.029681e+04, 5.587726e+12
1.030711e+04, 6.164054e+12
1.031742e+04, 6.088124e+12
1.032773e+04, 6.824909e+12
1.033806e+04, 5.890882e+12
1.034840e+04, 7.377793e+12
1.035875e+04, 6.924480e+12
1.036911e+04, 8.815963e+12
1.037947e+04, 8.098918e+12
1.038985e+04, 6.398481e+12
1.040024e+04, 8.220325e+12
1.041064e+04, 1.041024e+13
1.042106e+04, 7.013944e+12
1.043148e+04, 5.674395e+12
1.044191e+04, 9.369646e+12
1.045235e+04, 1.280854e+13
1.046280e+04, 1.308038e+13
1.047326e+04, 5.277041e+12
1.048374e+04, 9.215067e+12
1.049422e+04, 1.109524e+13
1.050472e+04, 1.044350e+13
1.051522e+04, 6.866138e+12
1.052574e+04, 7.468756e+12
1.053626e+04, 1.422842e+13
1.054680e+04, 1.088374e+13
1.055734e+04, 8.974252e+12
1.056790e+04, 7.857288e+12
1.057847e+04, 1.167773e+13
1.058905e+04, 1.187646e+13
1.059964e+04, 1.294284e+13
1.061024e+04, 1.051884e+13
1.062085e+04, 8.645865e+12
1.063147e+04, 1.234120e+13
1.064210e+04, 1.584833e+13
1.065274e+04, 1.327502e+13
1.066339e+04, 1.138691e+13
1.067406e+04, 9.879850e+12
1.068473e+04, 1.480021e+13
1.069542e+04, 1.434377e+13
1.070611e+04, 1.474169e+13
1.071682e+04, 1.689418e+13
1.072753e+04, 1.347470e+13
1.073826e+04, 1.623362e+13
1.074900e+04, 1.725303e+13
1.075975e+04, 1.797123e+13
1.077051e+04, 1.813027e+13
1.078128e+04, 1.905163e+13
1.079206e+04, 1.783087e+13
1.080285e+04, 1.818085e+13
1.081366e+04, 1.653928e+13
1.082447e+04, 1.930306e+13
1.083529e+04, 1.999153e+13
1.084613e+04, 1.867494e+13
1.085698e+04, 1.863605e+13
1.086783e+04, 1.886950e+13
1.087870e+04, 2.006284e+13
1.088958e+04, 1.805446e+13
1.090047e+04, 1.927867e+13
1.091137e+04, 1.891030e+13
1.092228e+04, 1.900356e+13
1.093320e+04, 1.918412e+13
1.094414e+04, 1.978381e+13
1.095508e+04, 1.902402e+13
1.096604e+04, 1.886796e+13
1.097700e+04, 1.715286e+13
1.098798e+04, 1.800895e+13
1.099897e+04, 1.812553e+13
1.100997e+04, 1.858244e+13
1.102098e+04, 1.646878e+13
1.103200e+04, 1.623880e+13
1.104303e+04, 1.631352e+13
1.105407e+04, 1.510413e+13
1.106513e+04, 1.597153e+13
1.107619e+04, 1.641142e+13
1.108727e+04, 1.602579e+13
1.109835e+04, 1.600767e+13
1.110945e+04, 1.538804e+13
1.112056e+04, 1.597468e+13
1.113168e+04, 1.658775e+13
1.114281e+04, 1.792224e+13
1.115396e+04, 1.615405e+13
1.116511e+04, 1.755050e+13
1.117628e+04, 1.636285e+13
1.118745e+04, 1.756748e+13
1.119864e+04, 1.629340e+13
1.120984e+04, 1.703050e+13
1.122105e+04, 1.690391e+13
1.123227e+04, 1.801107e+13
1.124350e+04, 1.758665e+13
1.125474e+04, 1.798093e+13
1.126600e+04, 1.865597e+13
1.127727e+04, 1.747056e+13
1.128854e+04, 1.821448e+13
1.129983e+04, 1.769442e+13
1.131113e+04, 1.864278e+13
1.132244e+04, 1.835289e+13
1.133376e+04, 1.749109e+13
1.134510e+04, 1.629012e+13
1.135644e+04, 1.670564e+13
1.136780e+04, 1.664520e+13
1.137917e+04, 1.254702e+13
1.139055e+04, 1.329844e+13
1.140194e+04, 1.153080e+13
1.141334e+04, 1.319004e+13
1.142475e+04, 1.633020e+13
1.143618e+04, 1.706565e+13
1.144761e+04, 1.740579e+13
1.145906e+04, 1.790196e+13
1.147052e+04, 1.857729e+13
1.148199e+04, 1.802875e+13
1.149347e+04, 1.892310e+13
1.150497e+04, 1.919474e+13
1.151647e+04, 1.914345e+13
1.152799e+04, 1.853626e+13
1.153952e+04, 1.821019e+13
1.155106e+04, 1.872447e+13
1.156261e+04, 1.832089e+13
1.157417e+04, 1.854917e+13
1.158574e+04, 1.910056e+13
1.159733e+04, 1.829161e+13
1.160893e+04, 1.601481e+13
1.162054e+04, 1.851789e+13
1.163216e+04, 1.916373e+13
1.164379e+04, 1.773552e+13
1.165543e+04, 1.780570e+13
1.166709e+04, 1.853448e+13
1.167875e+04, 1.712101e+13
1.169043e+04, 9.345734e+12
1.170212e+04, 1.448377e+13
1.171383e+04, 1.747020e+13
1.172554e+04, 1.920008e+13
1.173726e+04, 1.709288e+13
1.174900e+04, 1.741925e+13
1.176075e+04, 1.541448e+13
1.177251e+04, 7.361303e+12
1.178428e+04, 1.239801e+13
1.179607e+04, 1.689252e+13
1.180786e+04, 1.757519e+13
1.181967e+04, 1.812505e+13
1.183149e+04, 1.763458e+13
1.184332e+04, 1.886371e+13
1.185517e+04, 1.828170e+13
1.186702e+04, 1.870351e+13
1.187889e+04, 1.889627e+13
1.189077e+04, 1.572798e+13
1.190266e+04, 1.940402e+13
1.191456e+04, 1.866292e+13
1.192648e+04, 1.957972e+13
1.193840e+04, 1.726695e+13
1.195034e+04, 1.531628e+13
1.196229e+04, 1.503180e+13
1.197425e+04, 1.283056e+13
1.198623e+04, 1.433191e+13
1.199821e+04, 1.265564e+13
1.201021e+04, 1.311506e+13
1.202222e+04, 1.405273e+13
1.203424e+04, 1.452119e+13
1.204628e+04, 1.582181e+13
1.205833e+04, 1.836617e+13
1.207038e+04, 1.598585e+13
1.208245e+04, 1.801892e+13
1.209454e+04, 1.557430e+13
1.210663e+04, 1.470306e+13
1.211874e+04, 1.499198e+13
1.213086e+04, 1.612632e+13
1.214299e+04, 1.848768e+13
1.215513e+04, 1.824091e+13
1.216729e+04, 1.797551e+13
1.217945e+04, 1.873859e+13
1.219163e+04, 1.781955e+13
1.220382e+04, 1.600635e+13
1.221603e+04, 1.607321e+13
1.222824e+04, 1.615643e+13
1.224047e+04, 1.715072e+13
1.225271e+04, 1.936174e+13
1.226497e+04, 1.833782e+13
1.227723e+04, 1.857544e+13
1.228951e+04, 1.864349e+13
1.230180e+04, 1.843065e+13
1.231410e+04, 1.749136e+13
1.232641e+04, 1.712527e+13
1.233874e+04, 1.759785e+13
1.235108e+04, 1.687912e+13
1.236343e+04, 1.714417e+13
1.237579e+04, 1.704849e+13
1.238817e+04, 1.678423e+13
1.240056e+04, 1.559779e+13
1.241296e+04, 1.338413e+13
1.242537e+04, 1.241222e+13
1.243780e+04, 9.466705e+12
1.245023e+04, 1.623451e+13
1.246268e+04, 1.667560e+13
1.247515e+04, 1.649890e+13
1.248762e+04, 1.627946e+13
1.250011e+04, 1.573352e+13
1.251261e+04, 1.445160e+13
1.252512e+04, 8.483641e+12
1.253765e+04, 1.532879e+13
1.255018e+04, 1.532046e+13
1.256273e+04, 1.726392e+13
1.257530e+04, 1.742847e+13
1.258787e+04, 1.701699e+13
1.260046e+04, 1.674920e+13
1.261306e+04, 1.880784e+13
1.262567e+04, 1.626113e+13
1.263830e+04, 1.575053e+13
1.265094e+04, 1.678582e+13
1.266359e+04, 1.824940e+13
1.267625e+04, 1.724048e+13
1.268893e+04, 1.803455e+13
1.270162e+04, 1.726271e+13
1.271432e+04, 1.794625e+13
1.272703e+04, 1.905245e+13
1.273976e+04, 1.690844e+13
1.275250e+04, 1.694056e+13
1.276525e+04, 1.807842e+13
1.277802e+04, 1.765618e+13
1.279080e+04, 1.836495e+13
1.280359e+04, 1.798503e+13
1.281639e+04, 1.797108e+13
1.282921e+04, 1.737829e+13
1.284204e+04, 1.804049e+13
1.285488e+04, 1.718754e+13
1.286773e+04, 1.748472e+13
1.288060e+04, 1.745241e+13
1.289348e+04, 1.769489e+13
1.290637e+04, 1.689733e+13
1.291928e+04, 1.759400e+13
1.293220e+04, 1.797908e+13
1.294513e+04, 1.763557e+13
1.295808e+04, 1.913919e+13
1.297104e+04, 1.895092e+13
1.298401e+04, 1.880120e+13
1.299699e+04, 1.813148e+13
1.300999e+04, 1.819277e+13
1.302300e+04, 1.911182e+13
1.303602e+04, 1.901029e+13
1.304906e+04, 1.921776e+13
1.306211e+04, 1.916373e+13
1.307517e+04, 1.835961e+13
1.308824e+04, 1.820381e+13
1.310133e+04, 1.888097e+13
1.311443e+04, 1.905807e+13
1.312755e+04, 1.664475e+13
1.314067e+04, 1.850726e+13
1.315382e+04, 1.715324e+13
1.316697e+04, 1.908297e+13
1.318014e+04, 1.865536e+13
1.319332e+04, 1.925723e+13
1.320651e+04, 1.803006e+13
1.321972e+04, 1.730180e+13
1.323294e+04, 1.797564e+13
1.324617e+04, 1.771390e+13
1.325941e+04, 1.729822e+13
1.327267e+04, 1.677068e+13
1.328595e+04, 1.710347e+13
1.329923e+04, 1.592649e+13
1.331253e+04, 1.492370e+13
1.332584e+04, 1.223965e+13
1.333917e+04, 1.358201e+13
1.335251e+04, 8.235041e+12
1.336586e+04, 9.968872e+12
1.337923e+04, 8.632207e+12
1.339261e+04, 1.105577e+13
1.340600e+04, 1.022481e+13
1.341941e+04, 9.550890e+12
1.343283e+04, 8.898030e+12
1.344626e+04, 9.205760e+12
1.345970e+04, 1.020690e+13
1.347316e+04, 8.799482e+12
1.348664e+04, 9.617087e+12
1.350012e+04, 9.107849e+12
1.351362e+04, 9.062835e+12
1.352714e+04, 9.530236e+12
1.354066e+04, 8.041709e+12
1.355421e+04, 8.451573e+12
1.356776e+04, 9.689826e+12
1.358133e+04, 8.661936e+12
1.359491e+04, 9.269342e+12
1.360850e+04, 9.527304e+12
1.362211e+04, 7.965091e+12
1.363573e+04, 1.022237e+13
1.364937e+04, 8.797511e+12
1.366302e+04, 9.821040e+12
1.367668e+04, 1.019389e+13
1.369036e+04, 9.245758e+12
1.370405e+04, 9.577132e+12
1.371775e+04, 9.565050e+12
1.373147e+04, 9.728272e+12
1.374520e+04, 9.582028e+12
1.375895e+04, 1.039285e+13
1.377271e+04, 1.045935e+13
1.378648e+04, 9.978441e+12
1.380027e+04, 1.086522e+13
1.381407e+04, 1.107580e+13
1.382788e+04, 8.727329e+12
1.384171e+04, 1.080479e+13
1.385555e+04, 9.950587e+12
1.386941e+04, 1.063069e+13
1.388327e+04, 9.037861e+12
1.389716e+04, 1.026904e+13
1.391106e+04, 8.628443e+12
1.392497e+04, 8.788651e+12
1.393889e+04, 9.654489e+12
1.395283e+04, 8.669279e+12
1.396678e+04, 9.154065e+12
1.398075e+04, 7.993875e+12
1.399473e+04, 8.420938e+12
1.400873e+04, 8.086788e+12
1.402273e+04, 9.504359e+12
1.403676e+04, 9.416843e+12
1.405079e+04, 8.463339e+12
1.406484e+04, 9.535524e+12
1.407891e+04, 8.161774e+12
1.409299e+04, 8.172144e+12
1.410708e+04, 8.458303e+12
1.412119e+04, 7.109815e+12
1.413531e+04, 8.701280e+12
1.414944e+04, 7.873996e+12
1.416359e+04, 8.442277e+12
1.417776e+04, 7.058086e+12
1.419194e+04, 7.530651e+12
1.420613e+04, 8.511901e+12
1.422033e+04, 7.879333e+12
1.423455e+04, 6.882514e+12
1.424879e+04, 7.904719e+12
1.426304e+04, 7.417005e+12
1.427730e+04, 7.708948e+12
1.429158e+04, 6.774969e+12
1.430587e+04, 8.951784e+12
1.432018e+04, 7.525901e+12
1.433450e+04, 7.447086e+12
1.434883e+04, 8.015884e+12
1.436318e+04, 7.862361e+12
1.437754e+04, 8.362358e+12
1.439192e+04, 7.441263e+12
1.440631e+04, 7.990156e+12
1.442072e+04, 7.763945e+12
1.443514e+04, 9.481620e+12
1.444957e+04, 6.839602e+12
1.446402e+04, 8.316015e+12
1.447849e+04, 8.302434e+12
1.449297e+04, 8.899499e+12
1.450746e+04, 6.906076e+12
1.452197e+04, 9.962482e+12
1.453649e+04, 8.297006e+12
1.455102e+04, 9.077039e+12
1.456558e+04, 7.450156e+12
1.458014e+04, 9.344573e+12
1.459472e+04, 9.749849e+12
1.460932e+04, 8.596588e+12
1.462393e+04, 7.394537e+12
1.463855e+04, 8.911471e+12
1.465319e+04, 9.366118e+12
1.466784e+04, 8.989895e+12
1.468251e+04, 7.424229e+12
1.469719e+04, 8.044013e+12
1.471189e+04, 8.728382e+12
1.472660e+04, 9.280514e+12
1.474133e+04, 8.047256e+12
1.475607e+04, 8.515135e+12
1.477082e+04, 8.469230e+12
1.478560e+04, 9.483019e+12
1.480038e+04, 8.088340e+12
1.481518e+04, 8.363655e+12
1.483000e+04, 9.150641e+12
1.484483e+04, 8.729244e+12
1.485967e+04, 9.158251e+12
1.487453e+04, 9.401575e+12
1.488941e+04, 8.400050e+12
1.490429e+04, 8.799131e+12
1.491920e+04, 9.250620e+12
1.493412e+04, 9.045598e+12
1.494905e+04, 8.814977e+12
1.496400e+04, 9.077143e+12
1.497897e+04, 9.451076e+12
1.499394e+04, 9.379858e+12
1.500894e+04, 9.138364e+12
1.502395e+04, 8.778680e+12
1.503897e+04, 9.756679e+12
1.505401e+04, 9.604882e+12
1.506906e+04, 9.676859e+12
1.508413e+04, 9.041861e+12
1.509922e+04, 9.811846e+12
1.511432e+04, 9.636967e+12
1.512943e+04, 9.510374e+12
1.514456e+04, 1.031248e+13
1.515970e+04, 9.549811e+12
1.517486e+04, 8.224209e+12
1.519004e+04, 1.024795e+13
1.520523e+04, 9.945671e+12
1.522043e+04, 1.035718e+13
1.523566e+04, 1.069150e+13
1.525089e+04, 9.798239e+12
1.526614e+04, 9.784093e+12
1.528141e+04, 1.003391e+13
1.529669e+04, 1.064194e+13
1.531199e+04, 1.062990e+13
1.532730e+04, 9.315117e+12
1.534263e+04, 1.081493e+13
1.535797e+04, 1.065296e+13
1.537333e+04, 1.044502e+13
1.538870e+04, 1.097287e+13
1.540409e+04, 9.954978e+12
1.541949e+04, 1.061246e+13
1.543491e+04, 1.051658e+13
1.545035e+04, 1.118315e+13
1.546580e+04, 1.105111e+13
1.548126e+04, 1.066512e+13
1.549674e+04, 1.101230e+13
1.551224e+04, 1.058784e+13
1.552775e+04, 1.156419e+13
1.554328e+04, 1.089172e+13
1.555882e+04, 1.115718e+13
1.557438e+04, 1.074823e+13
1.558996e+04, 1.113124e+13
1.560555e+04, 1.108942e+13
1.562115e+04, 1.143281e+13
1.563677e+04, 1.161533e+13
1.565241e+04, 1.069240e+13
1.566806e+04, 1.180611e+13
1.568373e+04, 1.184890e+13
1.569941e+04, 1.144531e+13
1.571511e+04, 1.169115e+13
1.573083e+04, 1.157385e+13
1.574656e+04, 1.213282e+13
1.576231e+04, 1.180150e+13
1.577807e+04, 1.192265e+13
1.579385e+04, 1.210455e+13
1.580964e+04, 1.181874e+13
1.582545e+04, 1.232331e+13
1.584128e+04, 1.174395e+13
1.585712e+04, 1.238036e+13
1.587297e+04, 1.231314e+13
1.588885e+04, 1.243543e+13
1.590474e+04, 1.208353e+13
1.592064e+04, 1.241346e+13
1.593656e+04, 1.235149e+13
1.595250e+04, 1.261874e+13
1.596845e+04, 1.268668e+13
1.598442e+04, 1.255119e+13
1.600040e+04, 1.244032e+13
1.601640e+04, 1.269269e+13
1.603242e+04, 1.290138e+13
1.604845e+04, 1.244802e+13
1.606450e+04, 1.265560e+13
1.608057e+04, 1.282380e+13
1.609665e+04, 1.288062e+13
1.611274e+04, 1.267561e+13
1.612886e+04, 1.296300e+13
1.614498e+04, 1.289015e+13
1.616113e+04, 1.294480e+13
1.617729e+04, 1.334357e+13
1.619347e+04, 1.257046e+13
1.620966e+04, 1.286147e+13
1.622587e+04, 1.302039e+13
1.624210e+04, 1.331225e+13
1.625834e+04, 1.288531e+13
1.627460e+04, 1.327310e+13
1.629087e+04, 1.330759e+13
1.630716e+04, 1.321335e+13
1.632347e+04, 1.317071e+13
1.633979e+04, 1.343147e+13
1.635613e+04, 1.336268e+13
1.637249e+04, 1.344822e+13
1.638886e+04, 1.336634e+13
1.640525e+04, 1.339583e+13
1.642166e+04, 1.320176e+13
1.643808e+04, 1.355441e+13
1.645452e+04, 1.354312e+13
1.647097e+04, 1.365169e+13
1.648744e+04, 1.354777e+13
1.650393e+04, 1.339134e+13
1.652043e+04, 1.352420e+13
1.653695e+04, 1.354204e+13
1.655349e+04, 1.369337e+13
1.657004e+04, 1.377071e+13
1.658661e+04, 1.362238e+13
1.660320e+04, 1.346762e+13
1.661980e+04, 1.350028e+13
1.663642e+04, 1.380916e+13
1.665306e+04, 1.371907e+13
1.666971e+04, 1.358874e+13
1.668638e+04, 1.361924e+13
1.670307e+04, 1.378758e+13
1.671977e+04, 1.340319e+13
1.673649e+04, 1.371054e+13
1.675323e+04, 1.366127e+13
1.676998e+04, 1.350159e+13
1.678675e+04, 1.385358e+13
1.680354e+04, 1.363702e+13
1.682034e+04, 1.374966e+13
1.683716e+04, 1.369999e+13
1.685400e+04, 1.369737e+13
1.687085e+04, 1.346947e+13
1.688772e+04, 1.311949e+13
1.690461e+04, 1.360995e+13
1.692152e+04, 1.300950e+13
1.693844e+04, 1.339034e+13
1.695538e+04, 1.304611e+13
1.697233e+04, 1.254402e+13
1.698930e+04, 1.289122e+13
1.700629e+04, 1.262146e+13
1.702330e+04, 1.294451e+13
1.704032e+04, 1.244257e+13
1.705736e+04, 1.237956e+13
1.707442e+04, 1.211920e+13
1.709149e+04, 1.197557e+13
1.710859e+04, 1.164046e+13
1.712569e+04, 1.161643e+13
1.714282e+04, 1.104399e+13
1.715996e+04, 1.076267e+13
1.717712e+04, 1.056293e+13
1.719430e+04, 9.952878e+12
1.721149e+04, 1.104052e+13
1.722871e+04, 1.034365e+13
1.724593e+04, 1.103013e+13
1.726318e+04, 9.909088e+12
1.728044e+04, 1.038815e+13
1.729772e+04, 1.015540e+13
1.731502e+04, 9.542804e+12
1.733234e+04, 1.019095e+13
1.734967e+04, 9.247969e+12
1.736702e+04, 9.410640e+12
1.738439e+04, 9.719561e+12
1.740177e+04, 8.736844e+12
1.741917e+04, 9.038162e+12
1.743659e+04, 9.268770e+12
1.745403e+04, 8.894560e+12
1.747148e+04, 8.269088e+12
1.748895e+04, 9.043384e+12
1.750644e+04, 7.955727e+12
1.752395e+04, 8.965799e+12
1.754147e+04, 8.103041e+12
1.755901e+04, 7.180627e+12
1.757657e+04, 7.714153e+12
1.759415e+04, 8.144205e+12
1.761174e+04, 7.985158e+12
1.762936e+04, 7.141188e+12
1.764699e+04, 7.665081e+12
1.766463e+04, 8.039400e+12
1.768230e+04, 6.219345e+12
1.769998e+04, 7.825757e+12
1.771768e+04, 6.584452e+12
1.773540e+04, 7.262382e+12
1.775313e+04, 6.445332e+12
1.777089e+04, 6.504401e+12
1.778866e+04, 6.495655e+12
1.780644e+04, 6.703873e+12
1.782425e+04, 6.087192e+12
1.784208e+04, 6.877656e+12
1.785992e+04, 5.779219e+12
1.787778e+04, 5.597138e+12
1.789566e+04, 6.933971e+12
1.791355e+04, 5.352922e+12
1.793146e+04, 5.985071e+12
1.794940e+04, 6.154898e+12
1.796735e+04, 5.551152e+12
1.798531e+04, 6.837002e+12
1.800330e+04, 4.778482e+12
1.802130e+04, 5.353477e+12
1.803932e+04, 6.158901e+12
1.805736e+04, 5.310783e+12
1.807542e+04, 5.336121e+12
1.809349e+04, 6.079702e+12
1.811159e+04, 5.009571e+12
1.812970e+04, 5.222314e+12
1.814783e+04, 6.226903e+12
1.816598e+04, 5.678198e+12
1.818414e+04, 5.170050e+12
1.820233e+04, 5.081479e+12
1.822053e+04, 4.427987e+12
1.823875e+04, 7.165421e+12
1.825699e+04, 5.020227e+12
1.827525e+04, 5.231388e+12
1.829352e+04, 6.057895e+12
1.831181e+04, 5.354256e+12
1.833013e+04, 5.078260e+12
1.834846e+04, 5.448290e+12
1.836681e+04, 5.412639e+12
1.838517e+04, 5.064045e+12
1.840356e+04, 5.422356e+12
1.842196e+04, 4.892804e+12
1.844038e+04, 4.472508e+12
1.845882e+04, 5.005658e+12
1.847728e+04, 4.031198e+12
1.849576e+04, 4.479866e+12
1.851425e+04, 5.594910e+12
1.853277e+04, 4.327564e+12
1.855130e+04, 5.078587e+12
1.856985e+04, 3.825019e+12
1.858842e+04, 3.761888e+12
1.860701e+04, 3.557820e+12
1.862562e+04, 4.617564e+12
1.864424e+04, 4.012617e+12
1.866289e+04, 4.579385e+12
1.868155e+04, 4.431137e+12
1.870023e+04, 5.168711e+12
1.871893e+04, 4.604540e+12
1.873765e+04, 4.213448e+12
1.875639e+04, 4.845903e+12
1.877515e+04, 4.427239e+12
1.879392e+04, 4.495304e+12
1.881272e+04, 4.447576e+12
1.883153e+04, 5.959546e+12
1.885036e+04, 4.333943e+12
1.886921e+04, 5.354869e+12
1.888808e+04, 5.110052e+12
1.890697e+04, 4.983848e+12
1.892587e+04, 4.216658e+12
1.894480e+04, 4.977647e+12
1.896374e+04, 5.463705e+12
1.898271e+04, 4.730263e+12
1.900169e+04, 5.618831e+12
1.902069e+04, 5.221797e+12
1.903971e+04, 5.282745e+12
1.905875e+04, 4.915746e+12
1.907781e+04, 5.494574e+12
1.909689e+04, 5.342986e+12
1.911599e+04, 4.707930e+12
1.913510e+04, 5.534862e+12
1.915424e+04, 5.479597e+12
1.917339e+04, 5.009278e+12
1.919257e+04, 5.498234e+12
1.921176e+04, 4.905118e+12
1.923097e+04, 5.201942e+12
1.925020e+04, 5.163589e+12
1.926945e+04, 4.973607e+12
1.928872e+04, 5.353326e+12
1.930801e+04, 4.187598e+12
1.932732e+04, 4.886337e+12
1.934664e+04, 5.071297e+12
1.936599e+04, 5.075496e+12
1.938536e+04, 4.643362e+12
1.940474e+04, 4.086620e+12
1.942415e+04, 4.892883e+12
1.944357e+04, 4.491913e+12
1.946301e+04, 4.127121e+12
1.948248e+04, 4.298580e+12
1.950196e+04, 4.501515e+12
1.952146e+04, 4.497290e+12
1.954098e+04, 4.599118e+12
1.956052e+04, 4.133742e+12
1.958009e+04, 5.350614e+12
1.959967e+04, 4.481013e+12
1.961927e+04, 4.727045e+12
1.963888e+04, 4.478199e+12
1.965852e+04, 4.806529e+12
1.967818e+04, 4.673630e+12
1.969786e+04, 4.932029e+12
1.971756e+04, 4.776571e+12
1.973728e+04, 4.024220e+12
1.975701e+04, 3.821299e+12
1.977677e+04, 3.813983e+12
1.979655e+04, 3.884600e+12
1.981634e+04, 4.225851e+12
1.983616e+04, 4.376944e+12
1.985600e+04, 4.175674e+12
1.987585e+04, 4.116884e+12
1.989573e+04, 3.873153e+12
1.991562e+04, 3.890068e+12
1.993554e+04, 4.820726e+12
1.995547e+04, 4.359227e+12
1.997543e+04, 4.124739e+12
1.999541e+04, 4.200358e+12
2.001540e+04, 4.283531e+12
2.003542e+04, 4.736032e+12
2.005545e+04, 4.462705e+12
2.007551e+04, 4.651861e+12
2.009558e+04, 3.927307e+12
2.011568e+04, 4.125015e+12
2.013579e+04, 4.536768e+12
2.015593e+04, 4.436434e+12
2.017609e+04, 4.534860e+12
2.019626e+04, 3.801603e+12
2.021646e+04, 5.079034e+12
2.023667e+04, 4.699446e+12
2.025691e+04, 4.411244e+12
2.027717e+04, 4.429201e+12
2.029744e+04, 4.281206e+12
2.031774e+04, 4.762982e+12
2.033806e+04, 4.602223e+12
2.035840e+04, 4.608367e+12
2.037876e+04, 4.836630e+12
2.039914e+04, 4.541641e+12
2.041953e+04, 4.927051e+12
2.043995e+04, 4.518185e+12
2.046039e+04, 4.620811e+12
2.048085e+04, 4.865206e+12
2.050134e+04, 4.724361e+12
2.052184e+04, 4.924369e+12
2.054236e+04, 4.582332e+12
2.056290e+04, 4.901627e+12
2.058346e+04, 5.291402e+12
2.060405e+04, 4.881367e+12
2.062465e+04, 4.981444e+12
2.064528e+04, 4.579759e+12
2.066592e+04, 5.056972e+12
2.068659e+04, 5.059325e+12
2.070727e+04, 5.292003e+12
2.072798e+04, 4.866363e+12
2.074871e+04, 5.057094e+12
2.076946e+04, 5.143157e+12
2.079023e+04, 5.256015e+12
2.081102e+04, 5.138462e+12
2.083183e+04, 5.129440e+12
2.085266e+04, 5.310322e+12
2.087351e+04, 5.165155e+12
2.089439e+04, 5.092955e+12
2.091528e+04, 5.590192e+12
2.093620e+04, 5.366489e+12
2.095713e+04, 5.321229e+12
2.097809e+04, 5.366954e+12
2.099907e+04, 5.309326e+12
2.102007e+04, 5.554104e+12
2.104109e+04, 5.569524e+12
2.106213e+04, 5.558089e+12
2.108319e+04, 5.312038e+12
2.110427e+04, 5.813626e+12
2.112538e+04, 5.396506e+12
2.114650e+04, 5.800461e+12
2.116765e+04, 5.480957e+12
2.118882e+04, 5.635454e+12
2.121001e+04, 5.706195e+12
2.123122e+04, 5.747602e+12
2.125245e+04, 5.824826e+12
2.127370e+04, 5.689989e+12
2.129497e+04, 5.534835e+12
2.131627e+04, 5.804942e+12
2.133758e+04, 5.866822e+12
2.135892e+04, 6.015661e+12
2.138028e+04, 5.690667e+12
2.140166e+04, 5.723510e+12
2.142306e+04, 5.740837e+12
2.144449e+04, 6.211300e+12
2.146593e+04, 6.124038e+12
2.148740e+04, 5.822960e+12
2.150888e+04, 5.838241e+12
2.153039e+04, 5.847303e+12
2.155192e+04, 5.952570e+12
2.157347e+04, 6.070681e+12
2.159505e+04, 5.943678e+12
2.161664e+04, 6.085193e+12
2.163826e+04, 5.963069e+12
2.165990e+04, 6.025020e+12
2.168156e+04, 6.182417e+12
2.170324e+04, 6.026190e+12
2.172494e+04, 5.992529e+12
2.174667e+04, 6.081933e+12
2.176841e+04, 5.890164e+12
2.179018e+04, 5.934629e+12
2.181197e+04, 6.108647e+12
2.183378e+04, 5.918923e+12
2.185562e+04, 5.970012e+12
2.187747e+04, 6.051907e+12
2.189935e+04, 6.029074e+12
2.192125e+04, 6.027321e+12
2.194317e+04, 6.033654e+12
2.196512e+04, 5.971737e+12
2.198708e+04, 6.110148e+12
2.200907e+04, 6.046538e+12
2.203108e+04, 5.818966e+12
2.205311e+04, 5.642589e+12
2.207516e+04, 5.724237e+12
2.209724e+04, 5.691109e+12
2.211933e+04, 6.036069e+12
2.214145e+04, 6.024056e+12
2.216359e+04, 5.940088e+12
2.218576e+04, 5.921555e+12
2.220794e+04, 5.710607e+12
2.223015e+04, 6.034959e+12
2.225238e+04, 6.205967e+12
2.227463e+04, 5.831316e+12
2.229691e+04, 5.825025e+12
2.231921e+04, 6.096935e+12
2.234152e+04, 5.811607e+12
2.236387e+04, 5.783266e+12
2.238623e+04, 5.879012e+12
2.240862e+04, 5.984057e+12
2.243102e+04, 5.779700e+12
2.245346e+04, 5.983962e+12
2.247591e+04, 5.795146e+12
2.249839e+04, 5.798626e+12
2.252088e+04, 5.898016e+12
2.254340e+04, 5.732452e+12
2.256595e+04, 5.882171e+12
2.258851e+04, 5.803054e+12
2.261110e+04, 5.790717e+12
2.263371e+04, 5.630776e+12
2.265635e+04, 5.594860e+12
2.267900e+04, 5.789587e+12
2.270168e+04, 5.643845e+12
2.272438e+04, 5.642071e+12
2.274711e+04, 5.793085e+12
2.276986e+04, 5.785330e+12
2.279263e+04, 5.452180e+12
2.281542e+04, 5.655243e+12
2.283823e+04, 5.482941e+12
2.286107e+04, 5.787458e+12
2.288393e+04, 5.699127e+12
2.290682e+04, 5.583744e+12
2.292972e+04, 4.753437e+12
2.295265e+04, 4.040829e+12
2.297561e+04, 4.455579e+12
2.299858e+04, 4.824853e+12
2.302158e+04, 4.683001e+12
2.304460e+04, 4.915447e+12
2.306765e+04, 4.630165e+12
2.309071e+04, 4.850703e+12
2.311380e+04, 4.752514e+12
2.313692e+04, 4.863284e+12
2.316006e+04, 4.745289e+12
2.318322e+04, 4.756389e+12
2.320640e+04, 4.896320e+12
2.322961e+04, 3.620619e+12
2.325283e+04, 4.072881e+12
2.327609e+04, 4.244719e+12
2.329936e+04, 4.187546e+12
2.332266e+04, 4.539490e+12
2.334599e+04, 4.165527e+12
2.336933e+04, 4.274370e+12
2.339270e+04, 4.180513e+12
2.341609e+04, 4.355163e+12
2.343951e+04, 4.118935e+12
2.346295e+04, 4.453390e+12
2.348641e+04, 4.435090e+12
2.350990e+04, 4.176312e+12
2.353341e+04, 3.395669e+12
2.355694e+04, 3.966587e+12
2.358050e+04, 3.743078e+12
2.360408e+04, 3.878228e+12
2.362768e+04, 3.811159e+12
2.365131e+04, 4.174148e+12
2.367496e+04, 3.870200e+12
2.369864e+04, 3.903467e+12
2.372234e+04, 4.135045e+12
2.374606e+04, 3.954091e+12
2.376980e+04, 4.063975e+12
2.379357e+04, 3.874743e+12
2.381737e+04, 3.616039e+12
2.384119e+04, 3.444950e+12
2.386503e+04, 3.308873e+12
2.388889e+04, 3.640309e+12
2.391278e+04, 3.578079e+12
2.393669e+04, 3.855189e+12
2.396063e+04, 3.401245e+12
2.398459e+04, 3.633545e+12
2.400858e+04, 3.422935e+12
2.403258e+04, 3.340612e+12
2.405662e+04, 3.532200e+12
2.408067e+04, 2.990804e+12
2.410475e+04, 3.237278e+12
2.412886e+04, 3.035299e+12
2.415299e+04, 3.212206e+12
2.417714e+04, 3.002319e+12
2.420132e+04, 3.111629e+12
2.422552e+04, 2.735195e+12
2.424974e+04, 3.063335e+12
2.427399e+04, 2.633462e+12
2.429827e+04, 3.127670e+12
2.432257e+04, 2.739042e+12
2.434689e+04, 2.661148e+12
2.437124e+04, 2.356474e+12
2.439561e+04, 3.026449e+12
2.442000e+04, 2.626509e+12
2.444442e+04, 2.517406e+12
2.446887e+04, 2.498877e+12
2.449334e+04, 2.543332e+12
2.451783e+04, 2.397320e+12
2.454235e+04, 1.973127e+12
2.456689e+04, 2.811877e+12
2.459146e+04, 2.564593e+12
2.461605e+04, 2.194430e+12
2.464066e+04, 2.713259e+12
2.466530e+04, 2.192198e+12
2.468997e+04, 2.182864e+12
2.471466e+04, 2.241780e+12
2.473937e+04, 1.841717e+12
2.476411e+04, 2.285048e+12
2.478888e+04, 2.159574e+12
2.481367e+04, 1.864878e+12
2.483848e+04, 2.425041e+12
2.486332e+04, 2.245817e+12
2.488818e+04, 1.822633e+12
2.491307e+04, 1.828157e+12
2.493798e+04, 2.222979e+12
2.496292e+04, 2.147416e+12
2.498788e+04, 1.825937e+12
2.501287e+04, 2.148969e+12
2.503788e+04, 1.688473e+12
2.506292e+04, 1.623711e+12
2.508799e+04, 2.146773e+12
2.511307e+04, 1.748888e+12
2.513819e+04, 1.744474e+12
2.516332e+04, 1.807406e+12
2.518849e+04, 1.855781e+12
2.521368e+04, 1.851436e+12
2.523889e+04, 1.657307e+12
2.526413e+04, 1.791403e+12
2.528939e+04, 1.682370e+12
2.531468e+04, 2.064631e+12
2.534000e+04, 1.728242e+12
2.536534e+04, 1.448426e+12
2.539070e+04, 1.695055e+12
2.541609e+04, 1.778477e+12
2.544151e+04, 1.515446e+12
2.546695e+04, 1.722315e+12
2.549242e+04, 1.546418e+12
2.551791e+04, 1.779550e+12
2.554343e+04, 1.689956e+12
2.556897e+04, 1.712144e+12
2.559454e+04, 1.650606e+12
2.562014e+04, 1.436718e+12
2.564576e+04, 1.687965e+12
2.567140e+04, 1.540282e+12
2.569707e+04, 1.729571e+12
2.572277e+04, 1.976791e+12
2.574849e+04, 1.492476e+12
2.577424e+04, 1.282174e+12
2.580002e+04, 1.922602e+12
2.582582e+04, 1.565985e+12
2.585164e+04, 1.781114e+12
2.587749e+04, 1.592236e+12
2.590337e+04, 1.663748e+12
2.592927e+04, 1.719592e+12
2.595520e+04, 1.494175e+12
2.598116e+04, 1.558121e+12
2.600714e+04, 1.768154e+12
2.603315e+04, 1.754611e+12
2.605918e+04, 1.873266e+12
2.608524e+04, 1.429150e+12
2.611132e+04, 2.108276e+12
2.613744e+04, 1.766807e+12
2.616357e+04, 1.773179e+12
2.618974e+04, 1.621693e+12
2.621593e+04, 1.727654e+12
2.624214e+04, 1.861920e+12
2.626838e+04, 1.660153e+12
2.629465e+04, 1.707644e+12
2.632095e+04, 1.767608e+12
2.634727e+04, 1.629598e+12
2.637362e+04, 1.994800e+12
2.639999e+04, 1.687638e+12
2.642639e+04, 1.758942e+12
2.645282e+04, 1.667875e+12
2.647927e+04, 1.779226e+12
2.650575e+04, 1.938581e+12
2.653225e+04, 1.802466e+12
2.655879e+04, 1.787134e+12
2.658534e+04, 2.143945e+12
2.661193e+04, 1.928646e+12
2.663854e+04, 1.756361e+12
2.666518e+04, 1.664033e+12
2.669185e+04, 1.631243e+12
2.671854e+04, 1.885261e+12
2.674526e+04, 1.693352e+12
2.677200e+04, 1.250442e+12
2.679877e+04, 1.776165e+12
2.682557e+04, 1.608855e+12
2.685240e+04, 1.336039e+12
2.687925e+04, 1.697015e+12
2.690613e+04, 1.800419e+12
2.693303e+04, 1.273721e+12
2.695997e+04, 1.276646e+12
2.698693e+04, 1.593068e+12
2.701391e+04, 1.623480e+12
2.704093e+04, 1.345825e+12
2.706797e+04, 1.523678e+12
2.709504e+04, 1.432530e+12
2.712213e+04, 1.208924e+12
2.714925e+04, 1.453701e+12
2.717640e+04, 1.404556e+12
2.720358e+04, 1.409259e+12
2.723078e+04, 1.354463e+12
2.725801e+04, 1.351247e+12
2.728527e+04, 1.259993e+12
2.731256e+04, 1.682015e+12
2.733987e+04, 1.598379e+12
2.736721e+04, 1.194826e+12
2.739458e+04, 1.158769e+12
2.742197e+04, 1.438680e+12
2.744939e+04, 1.421789e+12
2.747684e+04, 1.521674e+12
2.750432e+04, 1.374133e+12
2.753182e+04, 1.358503e+12
2.755936e+04, 1.317945e+12
2.758692e+04, 1.473949e+12
2.761450e+04, 1.516143e+12
2.764212e+04, 1.363790e+12
2.766976e+04, 1.163821e+12
2.769743e+04, 1.252583e+12
2.772513e+04, 1.350814e+12
2.775285e+04, 1.587975e+12
2.778060e+04, 1.265029e+12
2.780839e+04, 1.281023e+12
2.783619e+04, 1.458848e+12
2.786403e+04, 1.065173e+12
2.789189e+04, 1.253916e+12
2.791979e+04, 1.358486e+12
2.794771e+04, 1.543357e+12
2.797565e+04, 1.392523e+12
2.800363e+04, 1.410700e+12
2.803163e+04, 1.025325e+12
2.805966e+04, 1.187524e+12
2.808772e+04, 1.440895e+12
2.811581e+04, 1.569865e+12
2.814393e+04, 1.224547e+12
2.817207e+04, 1.288278e+12
2.820024e+04, 9.883479e+11
2.822844e+04, 1.375003e+12
2.825667e+04, 1.322556e+12
2.828493e+04, 1.425553e+12
2.831321e+04, 1.502069e+12
2.834153e+04, 1.235506e+12
2.836987e+04, 9.822651e+11
2.839824e+04, 1.343869e+12
2.842664e+04, 1.360550e+12
2.845506e+04, 1.309572e+12
2.848352e+04, 1.333315e+12
2.851200e+04, 1.295424e+12
2.854051e+04, 9.850897e+11
2.856905e+04, 1.122025e+12
2.859762e+04, 1.586394e+12
2.862622e+04, 1.357387e+12
2.865485e+04, 1.247324e+12
2.868350e+04, 1.236068e+12
2.871219e+04, 1.129435e+12
2.874090e+04, 1.096890e+12
2.876964e+04, 1.487183e+12
2.879841e+04, 1.322751e+12
2.882721e+04, 1.339795e+12
2.885603e+04, 1.199556e+12
2.888489e+04, 1.156839e+12
2.891377e+04, 1.071992e+12
2.894269e+04, 1.514970e+12
2.897163e+04, 1.453811e+12
2.900060e+04, 1.055866e+12
2.902960e+04, 1.293125e+12
2.905863e+04, 1.298059e+12
2.908769e+04, 8.527568e+11
2.911678e+04, 1.347420e+12
2.914590e+04, 1.340968e+12
2.917504e+04, 1.248498e+12
2.920422e+04, 1.138118e+12
2.923342e+04, 1.140698e+12
2.926265e+04, 1.249287e+12
2.929192e+04, 9.946977e+11
2.932121e+04, 1.341477e+12
2.935053e+04, 1.361185e+12
2.937988e+04, 1.355196e+12
2.940926e+04, 1.043973e+12
2.943867e+04, 1.165291e+12
2.946811e+04, 1.157565e+12
2.949758e+04, 1.130867e+12
2.952707e+04, 1.261934e+12
2.955660e+04, 1.118591e+12
2.958616e+04, 1.297978e+12
2.961574e+04, 1.231301e+12
2.964536e+04, 1.241237e+12
2.967501e+04, 1.006733e+12
2.970468e+04, 1.229124e+12
2.973439e+04, 1.237794e+12
2.976412e+04, 1.294233e+12
2.979388e+04, 1.262693e+12
2.982368e+04, 1.182949e+12
2.985350e+04, 1.225848e+12
2.988335e+04, 9.566141e+11
2.991324e+04, 1.258444e+12
2.994315e+04, 1.318631e+12
2.997309e+04, 1.243444e+12
3.000307e+04, 1.316310e+12
3.003307e+04, 1.208454e+12
3.006310e+04, 1.058360e+12
3.009317e+04, 9.964852e+11
3.012326e+04, 1.206853e+12
3.015338e+04, 1.447212e+12
3.018354e+04, 1.312955e+12
3.021372e+04, 1.124299e+12
3.024393e+04, 1.227239e+12
3.027418e+04, 1.207542e+12
3.030445e+04, 1.077398e+12
3.033476e+04, 1.295152e+12
3.036509e+04, 1.246444e+12
3.039546e+04, 1.327908e+12
3.042585e+04, 1.250788e+12
3.045628e+04, 1.096923e+12
3.048673e+04, 1.119944e+12
3.051722e+04, 1.051409e+12
3.054774e+04, 1.440430e+12
3.057829e+04, 1.245436e+12
3.060886e+04, 1.245652e+12
3.063947e+04, 1.296720e+12
3.067011e+04, 1.299138e+12
3.070078e+04, 1.106662e+12
3.073148e+04, 1.110469e+12
3.076221e+04, 1.239527e+12
3.079298e+04, 1.462497e+12
3.082377e+04, 1.243695e+12
3.085459e+04, 1.311090e+12
3.088545e+04, 1.119408e+12
3.091633e+04, 1.200169e+12
3.094725e+04, 1.145827e+12
3.097820e+04, 1.186792e+12
3.100918e+04, 1.462619e+12
3.104018e+04, 1.338189e+12
3.107122e+04, 1.251527e+12
3.110230e+04, 1.200866e+12
3.113340e+04, 1.152677e+12
3.116453e+04, 1.327462e+12
3.119570e+04, 1.234459e+12
3.122689e+04, 1.263517e+12
3.125812e+04, 1.443018e+12
3.128938e+04, 1.192729e+12
3.132067e+04, 1.172920e+12
3.135199e+04, 1.350461e+12
3.138334e+04, 1.281013e+12
3.141472e+04, 1.321599e+12
3.144614e+04, 1.208279e+12
3.147758e+04, 1.273105e+12
3.150906e+04, 1.356898e+12
3.154057e+04, 1.227935e+12
3.157211e+04, 1.185028e+12
3.160368e+04, 1.310468e+12
3.163529e+04, 1.397078e+12
3.166692e+04, 1.202951e+12
3.169859e+04, 1.293765e+12
3.173029e+04, 1.284458e+12
3.176202e+04, 1.215672e+12
3.179378e+04, 1.230195e+12
3.182557e+04, 1.442078e+12
3.185740e+04, 1.268895e+12
3.188926e+04, 1.289703e+12
3.192115e+04, 1.392441e+12
3.195307e+04, 1.216015e+12
3.198502e+04, 1.249663e+12
3.201700e+04, 1.170799e+12
3.204902e+04, 1.255179e+12
3.208107e+04, 1.415295e+12
3.211315e+04, 1.302659e+12
3.214526e+04, 1.373778e+12
3.217741e+04, 1.255386e+12
3.220959e+04, 1.368010e+12
3.224180e+04, 1.278679e+12
3.227404e+04, 1.228491e+12
3.230631e+04, 1.417601e+12
3.233862e+04, 1.375356e+12
3.237096e+04, 1.337357e+12
3.240333e+04, 1.290462e+12
3.243573e+04, 1.277170e+12
3.246817e+04, 1.327351e+12
3.250064e+04, 1.342179e+12
3.253314e+04, 1.324210e+12
3.256567e+04, 1.443452e+12
3.259824e+04, 1.453408e+12
3.263083e+04, 1.423100e+12
3.266346e+04, 1.374840e+12
3.269613e+04, 1.276209e+12
3.272882e+04, 1.385245e+12
3.276155e+04, 1.323049e+12
3.279431e+04, 1.285599e+12
3.282711e+04, 1.328331e+12
3.285994e+04, 1.335094e+12
3.289280e+04, 1.411697e+12
3.292569e+04, 1.315199e+12
3.295861e+04, 1.369163e+12
3.299157e+04, 1.287262e+12
3.302456e+04, 1.379681e+12
3.305759e+04, 1.393179e+12
3.309065e+04, 1.358807e+12
3.312374e+04, 1.377457e+12
3.315686e+04, 1.303273e+12
3.319002e+04, 1.286418e+12
3.322321e+04, 1.399160e+12
3.325643e+04, 1.407402e+12
3.328969e+04, 1.481547e+12
3.332298e+04, 1.472931e+12
3.335630e+04, 1.380155e+12
3.338966e+04, 1.241991e+12
3.342305e+04, 1.408954e+12
3.345647e+04, 1.328137e+12
3.348993e+04, 1.407211e+12
3.352342e+04, 1.463721e+12
3.355694e+04, 1.208234e+12
3.359050e+04, 1.409959e+12
3.362409e+04, 1.357752e+12
3.365771e+04, 1.415826e+12
3.369137e+04, 1.393627e+12
3.372506e+04, 1.371124e+12
3.375878e+04, 1.292541e+12
3.379254e+04, 1.302153e+12
3.382634e+04, 1.401776e+12
3.386016e+04, 1.386486e+12
3.389402e+04, 1.424151e+12
3.392792e+04, 1.388885e+12
3.396184e+04, 1.365106e+12
3.399581e+04, 1.326269e+12
3.402980e+04, 1.369023e+12
3.406383e+04, 1.436810e+12
3.409790e+04, 1.328623e+12
3.413199e+04, 1.324727e+12
3.416613e+04, 1.303053e+12
3.420029e+04, 1.330994e+12
3.423449e+04, 1.394294e+12
3.426873e+04, 1.397749e+12
3.430300e+04, 1.376091e+12
3.433730e+04, 1.413825e+12
3.437164e+04, 1.378328e+12
3.440601e+04, 1.366069e+12
3.444041e+04, 1.255533e+12
3.447485e+04, 1.356474e+12
3.450933e+04, 1.472563e+12
3.454384e+04, 1.399798e+12
3.457838e+04, 1.258956e+12
3.461296e+04, 1.356658e+12
3.464757e+04, 1.375015e+12
3.468222e+04, 1.458690e+12
3.471690e+04, 1.469269e+12
3.475162e+04, 1.413632e+12
3.478637e+04, 1.387026e+12
3.482116e+04, 1.283149e+12
3.485598e+04, 1.360902e+12
3.489083e+04, 1.343968e+12
3.492573e+04, 1.253022e+12
3.496065e+04, 1.446544e+12
3.499561e+04, 1.260700e+12
3.503061e+04, 1.469787e+12
3.506564e+04, 1.438638e+12
3.510070e+04, 1.383957e+12
3.513580e+04, 1.475779e+12
3.517094e+04, 1.317841e+12
3.520611e+04, 1.253466e+12
3.524132e+04, 1.378236e+12
3.527656e+04, 1.276868e+12
3.531184e+04, 1.471318e+12
3.534715e+04, 1.434517e+12
3.538249e+04, 1.291670e+12
3.541788e+04, 1.420364e+12
3.545329e+04, 1.207951e+12
3.548875e+04, 1.441422e+12
3.552424e+04, 1.333235e+12
3.555976e+04, 1.376158e+12
3.559532e+04, 1.366335e+12
3.563092e+04, 1.349400e+12
3.566655e+04, 1.424655e+12
3.570221e+04, 1.313490e+12
3.573792e+04, 1.308103e+12
3.577365e+04, 1.304241e+12
3.580943e+04, 1.411122e+12
3.584524e+04, 1.349109e+12
3.588108e+04, 1.401040e+12
3.591696e+04, 1.397851e+12
3.595288e+04, 1.398919e+12
3.598883e+04, 1.321952e+12
3.602482e+04, 1.234199e+12
3.606085e+04, 1.405141e+12
3.609691e+04, 1.393775e+12
3.613300e+04, 1.345326e+12
3.616914e+04, 1.305829e+12
3.620531e+04, 1.357572e+12
3.624151e+04, 1.323412e+12
3.627775e+04, 1.421793e+12
3.631403e+04, 1.390291e+12
3.635035e+04, 1.194685e+12
3.638670e+04, 1.328662e+12
3.642308e+04, 1.384951e+12
3.645951e+04, 1.417968e+12
3.649596e+04, 1.328323e+12
3.653246e+04, 1.297309e+12
3.656899e+04, 1.330580e+12
3.660556e+04, 1.301443e+12
3.664217e+04, 1.267324e+12
3.667881e+04, 1.340538e+12
3.671549e+04, 1.370293e+12
3.675220e+04, 1.298047e+12
3.678896e+04, 1.264575e+12
3.682575e+04, 1.378049e+12
3.686257e+04, 1.382963e+12
3.689943e+04, 1.330511e+12
3.693633e+04, 1.337751e+12
3.697327e+04, 1.344421e+12
3.701024e+04, 1.212365e+12
3.704725e+04, 1.378195e+12
3.708430e+04, 1.222685e+12
3.712138e+04, 1.419734e+12
3.715851e+04, 1.334798e+12
3.719566e+04, 1.348148e+12
3.723286e+04, 1.377241e+12
3.727009e+04, 1.371829e+12
3.730736e+04, 1.364652e+12
3.734467e+04, 1.183124e+12
3.738202e+04, 1.245057e+12
3.741940e+04, 1.294894e+12
3.745682e+04, 1.324615e+12
3.749427e+04, 1.372204e+12
3.753177e+04, 1.368392e+12
3.756930e+04, 1.350489e+12
3.760687e+04, 1.363917e+12
3.764448e+04, 1.316311e+12
3.768212e+04, 1.365210e+12
3.771980e+04, 1.120896e+12
3.775752e+04, 1.383101e+12
3.779528e+04, 1.371252e+12
3.783307e+04, 1.347901e+12
3.787091e+04, 1.331752e+12
3.790878e+04, 1.333961e+12
3.794669e+04, 1.349927e+12
3.798463e+04, 1.338693e+12
3.802262e+04, 1.371615e+12
3.806064e+04, 1.232861e+12
3.809870e+04, 1.155829e+12
3.813680e+04, 1.349356e+12
3.817494e+04, 1.328719e+12
3.821311e+04, 1.326537e+12
3.825133e+04, 1.305526e+12
3.828958e+04, 1.261354e+12
3.832787e+04, 1.323696e+12
3.836619e+04, 1.279267e+12
3.840456e+04, 1.258079e+12
3.844297e+04, 1.323459e+12
3.848141e+04, 1.135496e+12
3.851989e+04, 1.252305e+12
3.855841e+04, 1.328650e+12
3.859697e+04, 1.367707e+12
3.863556e+04, 1.296466e+12
3.867420e+04, 1.268091e+12
3.871287e+04, 1.280250e+12
3.875159e+04, 1.256421e+12
3.879034e+04, 1.244806e+12
3.882913e+04, 1.321713e+12
3.886796e+04, 1.175581e+12
3.890683e+04, 1.163872e+12
3.894573e+04, 1.290743e+12
3.898468e+04, 1.250842e+12
3.902366e+04, 1.285866e+12
3.906269e+04, 1.268996e+12
3.910175e+04, 1.230994e+12
3.914085e+04, 1.173503e+12
3.917999e+04, 1.266775e+12
3.921917e+04, 1.249341e+12
3.925839e+04, 1.240351e+12
3.929765e+04, 1.164847e+12
3.933695e+04, 1.181742e+12
3.937628e+04, 1.255150e+12
3.941566e+04, 1.216555e+12
3.945508e+04, 1.224781e+12
3.949453e+04, 1.212332e+12
3.953403e+04, 1.199697e+12
3.957356e+04, 1.180159e+12
3.961313e+04, 1.228938e+12
3.965275e+04, 1.149137e+12
3.969240e+04, 1.171963e+12
3.973209e+04, 1.106344e+12
3.977182e+04, 1.098077e+12
3.981160e+04, 1.134427e+12
3.985141e+04, 1.175571e+12
3.989126e+04, 1.149232e+12
3.993115e+04, 1.134950e+12
3.997108e+04, 1.133318e+12
4.001105e+04, 1.085317e+12
4.005106e+04, 1.054111e+12
4.009111e+04, 1.071596e+12
4.013121e+04, 1.078861e+12
4.017134e+04, 1.055606e+12
4.021151e+04, 1.002707e+12
4.025172e+04, 1.033837e+12
4.029197e+04, 1.027098e+12
4.033226e+04, 1.062109e+12
4.037260e+04, 1.093705e+12
4.041297e+04, 1.007509e+12
4.045338e+04, 9.594141e+11
4.049383e+04, 9.488165e+11
4.053433e+04, 1.014693e+12
4.057486e+04, 1.001078e+12
4.061544e+04, 9.101441e+11
4.065605e+04, 9.729082e+11
4.069671e+04, 9.823673e+11
4.073741e+04, 9.578840e+11
4.077814e+04, 9.145054e+11
4.081892e+04, 9.278384e+11
4.085974e+04, 8.529258e+11
4.090060e+04, 8.824718e+11
4.094150e+04, 9.178868e+11
4.098244e+04, 8.970368e+11
4.102342e+04, 9.007406e+11
4.106445e+04, 9.459146e+11
4.110551e+04, 8.550699e+11
4.114662e+04, 8.948546e+11
4.118776e+04, 8.435129e+11
4.122895e+04, 8.756661e+11
4.127018e+04, 8.720988e+11
4.131145e+04, 7.977728e+11
4.135276e+04, 9.177372e+11
4.139412e+04, 8.098462e+11
4.143551e+04, 8.570005e+11
4.147695e+04, 8.906863e+11
4.151842e+04, 8.961524e+11
4.155994e+04, 8.024370e+11
4.160150e+04, 8.100343e+11
4.164310e+04, 7.808472e+11
4.168475e+04, 7.946059e+11
4.172643e+04, 7.916416e+11
4.176816e+04, 8.144183e+11
4.180992e+04, 8.458443e+11
4.185173e+04, 7.421474e+11
4.189359e+04, 8.182077e+11
4.193548e+04, 8.256647e+11
4.197742e+04, 7.872151e+11
4.201939e+04, 8.263952e+11
4.206141e+04, 7.858199e+11
4.210347e+04, 7.909616e+11
4.214558e+04, 6.963381e+11
4.218772e+04, 7.616412e+11
4.222991e+04, 7.500331e+11
4.227214e+04, 7.939731e+11
4.231441e+04, 7.768019e+11
4.235673e+04, 8.116303e+11
4.239908e+04, 7.447341e+11
4.244148e+04, 7.157289e+11
4.248392e+04, 7.263325e+11
4.252641e+04, 6.674114e+11
4.256893e+04, 7.347283e+11
4.261150e+04, 7.370303e+11
4.265411e+04, 7.287164e+11
4.269677e+04, 7.286310e+11
4.273947e+04, 6.861078e+11
4.278221e+04, 7.692441e+11
4.282499e+04, 6.949388e+11
4.286781e+04, 7.597164e+11
4.291068e+04, 7.167763e+11
4.295359e+04, 6.580729e+11
4.299654e+04, 6.861481e+11
4.303954e+04, 6.262811e+11
4.308258e+04, 6.587034e+11
4.312566e+04, 6.646591e+11
4.316879e+04, 6.538801e+11
4.321196e+04, 6.721664e+11
4.325517e+04, 6.569509e+11
4.329842e+04, 6.494335e+11
4.334172e+04, 6.607601e+11
4.338506e+04, 6.022193e+11
4.342845e+04, 6.224064e+11
4.347188e+04, 6.253291e+11
4.351535e+04, 6.127978e+11
4.355887e+04, 5.952912e+11
4.360242e+04, 6.427890e+11
4.364603e+04, 6.136106e+11
4.368967e+04, 5.686629e+11
4.373336e+04, 5.900635e+11
4.377710e+04, 5.832076e+11
4.382087e+04, 5.700158e+11
4.386469e+04, 5.814236e+11
4.390856e+04, 6.277449e+11
4.395247e+04, 5.511652e+11
4.399642e+04, 5.494593e+11
4.404042e+04, 5.475999e+11
4.408446e+04, 5.639609e+11
4.412854e+04, 5.803193e+11
4.417267e+04, 5.464632e+11
4.421684e+04, 5.348825e+11
4.426106e+04, 5.278663e+11
4.430532e+04, 5.146047e+11
4.434963e+04, 4.684969e+11
4.439398e+04, 4.955783e+11
4.443837e+04, 5.463368e+11
4.448281e+04, 5.336950e+11
4.452729e+04, 5.577194e+11
4.457182e+04, 5.001650e+11
4.461639e+04, 5.278583e+11
4.466101e+04, 4.840447e+11
4.470567e+04, 4.837611e+11
4.475037e+04, 5.606103e+11
4.479512e+04, 4.735446e+11
4.483992e+04, 5.255508e+11
4.488476e+04, 4.993111e+11
4.492964e+04, 4.981726e+11
4.497457e+04, 5.096043e+11
4.501955e+04, 5.028156e+11
4.506457e+04, 4.474263e+11
4.510963e+04, 4.900938e+11
4.515474e+04, 5.143734e+11
4.519990e+04, 4.393220e+11
4.524510e+04, 4.963378e+11
4.529034e+04, 5.016450e+11
4.533563e+04, 4.201970e+11
4.538097e+04, 5.006181e+11
4.542635e+04, 4.866673e+11
4.547177e+04, 4.293124e+11
4.551725e+04, 4.336619e+11
4.556276e+04, 5.001288e+11
4.560833e+04, 4.584557e+11
4.565393e+04, 4.414930e+11
4.569959e+04, 4.461708e+11
4.574529e+04, 4.252206e+11
4.579103e+04, 4.598906e+11
4.583682e+04, 4.638116e+11
4.588266e+04, 4.134643e+11
4.592854e+04, 4.808578e+11
4.597447e+04, 4.342926e+11
4.602045e+04, 4.588853e+11
4.606647e+04, 4.736031e+11
4.611253e+04, 4.586922e+11
4.615865e+04, 3.645699e+11
4.620480e+04, 4.747483e+11
4.625101e+04, 3.856545e+11
4.629726e+04, 4.770015e+11
4.634356e+04, 4.522110e+11
4.638990e+04, 4.022018e+11
4.643629e+04, 4.280908e+11
4.648273e+04, 4.052151e+11
4.652921e+04, 4.147406e+11
4.657574e+04, 4.498822e+11
4.662231e+04, 4.273873e+11
4.666894e+04, 4.442887e+11
4.671561e+04, 4.290036e+11
4.676232e+04, 4.350479e+11
4.680908e+04, 3.804903e+11
4.685589e+04, 4.573663e+11
4.690275e+04, 3.921791e+11
4.694965e+04, 4.695371e+11
4.699660e+04, 4.118099e+11
4.704360e+04, 4.597147e+11
4.709064e+04, 3.717327e+11
4.713773e+04, 4.273462e+11
4.718487e+04, 3.780250e+11
4.723205e+04, 4.545926e+11
4.727929e+04, 3.796145e+11
4.732657e+04, 4.141832e+11
4.737389e+04, 4.078309e+11
4.742127e+04, 4.351228e+11
4.746869e+04, 4.078633e+11
4.751616e+04, 4.126505e+11
4.756367e+04, 4.003984e+11
4.761124e+04, 4.008703e+11
4.765885e+04, 3.511361e+11
4.770651e+04, 4.350257e+11
4.775421e+04, 3.574634e+11
4.780197e+04, 3.990730e+11
4.784977e+04, 3.468845e+11
4.789762e+04, 4.326975e+11
4.794552e+04, 3.364570e+11
4.799346e+04, 4.564781e+11
4.804146e+04, 3.676182e+11
4.808950e+04, 4.076492e+11
4.813759e+04, 3.204541e+11
4.818572e+04, 4.137061e+11
4.823391e+04, 3.962481e+11
4.828214e+04, 4.301901e+11
4.833043e+04, 3.702618e+11
4.837876e+04, 3.942572e+11
4.842713e+04, 3.418538e+11
4.847556e+04, 4.207379e+11
4.852404e+04, 3.584681e+11
4.857256e+04, 3.851692e+11
4.862113e+04, 3.973289e+11
4.866976e+04, 3.554065e+11
4.871842e+04, 3.689749e+11
4.876714e+04, 3.469976e+11
4.881591e+04, 4.190703e+11
4.886473e+04, 3.361115e+11
4.891359e+04, 3.933969e+11
4.896250e+04, 3.232731e+11
4.901147e+04, 4.198638e+11
4.906048e+04, 3.705887e+11
4.910954e+04, 3.706035e+11
4.915865e+04, 3.749545e+11
4.920781e+04, 3.791854e+11
4.925702e+04, 3.269169e+11
4.930627e+04, 3.440900e+11
4.935558e+04, 3.295326e+11
4.940493e+04, 3.939262e+11
4.945434e+04, 3.638779e+11
4.950379e+04, 3.340203e+11
4.955330e+04, 3.226713e+11
4.960285e+04, 3.366163e+11
4.965245e+04, 3.397016e+11
4.970211e+04, 3.001172e+11
4.975181e+04, 4.118803e+11
4.980156e+04, 3.382047e+11
4.985136e+04, 3.920619e+11
4.990121e+04, 3.221228e+11
4.995111e+04, 3.229640e+11
5.000106e+04, 3.239590e+11
5.005107e+04, 3.500669e+11
5.010112e+04, 3.350772e+11
5.015122e+04, 3.211054e+11
5.020137e+04, 2.763993e+11
5.025157e+04, 3.112140e+11
5.030182e+04, 3.050383e+11
5.035212e+04, 3.502072e+11
5.040248e+04, 3.081158e+11
5.045288e+04, 3.014392e+11
5.050333e+04, 3.883243e+11
5.055383e+04, 3.115427e+11
5.060439e+04, 3.126023e+11
5.065499e+04, 3.020447e+11
5.070565e+04, 3.521115e+11
5.075635e+04, 3.362205e+11
5.080711e+04, 2.606910e+11
5.085792e+04, 3.171170e+11
5.090878e+04, 3.145209e+11
5.095968e+04, 3.302020e+11
5.101064e+04, 3.523512e+11
5.106165e+04, 2.860548e+11
5.111272e+04, 2.958085e+11
5.116383e+04, 3.094915e+11
5.121499e+04, 3.141182e+11
5.126621e+04, 2.874119e+11
5.131747e+04, 2.694201e+11
5.136879e+04, 3.320348e+11
5.142016e+04, 2.835605e+11
5.147158e+04, 2.593472e+11
5.152305e+04, 3.429796e+11
5.157457e+04, 2.971027e+11
5.162615e+04, 2.747921e+11
5.167778e+04, 2.841612e+11
5.172945e+04, 2.718721e+11
5.178118e+04, 3.074986e+11
5.183296e+04, 3.001998e+11
5.188480e+04, 3.080096e+11
5.193668e+04, 3.032427e+11
5.198862e+04, 2.686171e+11
5.204061e+04, 2.793043e+11
5.209265e+04, 3.001677e+11
5.214474e+04, 2.993252e+11
5.219688e+04, 2.856107e+11
5.224908e+04, 2.755564e+11
5.230133e+04, 2.942345e+11
5.235363e+04, 3.050209e+11
5.240599e+04, 2.468680e+11
5.245839e+04, 2.832383e+11
5.251085e+04, 2.931188e+11
5.256336e+04, 2.701286e+11
5.261592e+04, 3.292080e+11
5.266854e+04, 2.838633e+11
5.272121e+04, 2.741002e+11
5.277393e+04, 2.429012e+11
5.282670e+04, 2.578594e+11
5.287953e+04, 2.794884e+11
5.293241e+04, 2.600539e+11
5.298534e+04, 2.694103e+11
5.303833e+04, 2.952419e+11
5.309137e+04, 2.582944e+11
5.314446e+04, 2.966760e+11
5.319760e+04, 2.362853e+11
5.325080e+04, 2.848075e+11
5.330405e+04, 2.925245e+11
5.335735e+04, 2.789538e+11
5.341071e+04, 2.642391e+11
5.346412e+04, 2.368388e+11
5.351759e+04, 2.404814e+11
5.357110e+04, 2.865585e+11
5.362468e+04, 2.621483e+11
5.367830e+04, 2.624077e+11
5.373198e+04, 2.756278e+11
5.378571e+04, 2.530486e+11
5.383950e+04, 2.812590e+11
5.389334e+04, 2.312133e+11
5.394723e+04, 2.723832e+11
5.400118e+04, 2.798598e+11
5.405518e+04, 2.429554e+11
5.410923e+04, 2.308628e+11
5.416334e+04, 2.369950e+11
5.421751e+04, 2.261435e+11
5.427172e+04, 2.431032e+11
5.432599e+04, 2.459744e+11
5.438032e+04, 2.389384e+11
5.443470e+04, 2.568407e+11
5.448914e+04, 2.547397e+11
5.454362e+04, 2.397848e+11
5.459817e+04, 2.573677e+11
5.465277e+04, 2.353710e+11
5.470742e+04, 2.511577e+11
5.476213e+04, 2.343860e+11
5.481689e+04, 2.546899e+11
5.487171e+04, 2.412556e+11
5.492658e+04, 2.393416e+11
5.498150e+04, 2.693824e+11
5.503649e+04, 2.431809e+11
5.509152e+04, 2.379508e+11
5.514661e+04, 2.318780e+11
5.520176e+04, 2.216027e+11
5.525696e+04, 2.167965e+11
5.531222e+04, 2.197360e+11
5.536753e+04, 2.485750e+11
5.542290e+04, 2.481066e+11
5.547832e+04, 2.149856e+11
5.553380e+04, 2.342493e+11
5.558933e+04, 2.210327e+11
5.564492e+04, 2.101089e+11
5.570057e+04, 2.322707e+11
5.575627e+04, 2.314013e+11
5.581202e+04, 2.117923e+11
5.586784e+04, 2.205826e+11
5.592370e+04, 2.402599e+11
5.597963e+04, 2.535231e+11
5.603561e+04, 2.243177e+11
5.609164e+04, 2.345973e+11
5.614774e+04, 2.226977e+11
5.620388e+04, 2.133444e+11
5.626009e+04, 2.339146e+11
5.631635e+04, 2.154546e+11
5.637266e+04, 2.571619e+11
5.642904e+04, 2.169295e+11
5.648546e+04, 2.149529e+11
5.654195e+04, 1.942226e+11
5.659849e+04, 2.348165e+11
5.665509e+04, 2.035628e+11
5.671175e+04, 2.498074e+11
5.676846e+04, 2.033867e+11
5.682523e+04, 2.119225e+11
5.688205e+04, 2.128796e+11
5.693893e+04, 2.077236e+11
5.699587e+04, 2.166923e+11
5.705287e+04, 2.385497e+11
5.710992e+04, 1.863747e+11
5.716703e+04, 2.011775e+11
5.722420e+04, 2.043687e+11
5.728142e+04, 2.063479e+11
5.733870e+04, 1.771948e+11
5.739604e+04, 2.104003e+11
5.745344e+04, 2.181039e+11
5.751089e+04, 2.291389e+11
5.756840e+04, 2.272115e+11
5.762597e+04, 1.956641e+11
5.768360e+04, 2.049898e+11
5.774128e+04, 2.242976e+11
5.779902e+04, 1.738132e+11
5.785682e+04, 2.064288e+11
5.791468e+04, 2.162005e+11
5.797259e+04, 1.916291e+11
5.803056e+04, 2.199345e+11
5.808860e+04, 2.218478e+11
5.814668e+04, 2.042083e+11
5.820483e+04, 1.880701e+11
5.826304e+04, 2.104999e+11
5.832130e+04, 1.731360e+11
5.837962e+04, 1.907897e+11
5.843800e+04, 1.920187e+11
5.849644e+04, 1.886158e+11
5.855493e+04, 1.972653e+11
5.861349e+04, 2.156086e+11
5.867210e+04, 2.032657e+11
5.873077e+04, 1.875384e+11
5.878951e+04, 1.922412e+11
5.884829e+04, 1.878636e+11
5.890714e+04, 2.225052e+11
5.896605e+04, 1.871257e+11
5.902502e+04, 1.752319e+11
5.908404e+04, 2.055685e+11
5.914313e+04, 2.105793e+11
5.920227e+04, 1.985809e+11
5.926147e+04, 2.176385e+11
5.932073e+04, 1.945262e+11
5.938005e+04, 1.804734e+11
5.943943e+04, 1.908348e+11
5.949887e+04, 1.747096e+11
5.955837e+04, 2.148537e+11
5.961793e+04, 1.965959e+11
5.967755e+04, 1.787456e+11
5.973723e+04, 2.106364e+11
5.979696e+04, 2.005520e+11
5.985676e+04, 1.943785e+11
5.991662e+04, 1.758806e+11
5.997653e+04, 2.110786e+11
6.003651e+04, 2.001105e+11
6.009655e+04, 2.162396e+11
6.015664e+04, 1.884298e+11
6.021680e+04, 1.852133e+11
6.027702e+04, 2.004878e+11
6.033729e+04, 1.769585e+11
6.039763e+04, 1.841858e+11
6.045803e+04, 1.660422e+11
6.051849e+04, 1.716437e+11
6.057900e+04, 1.923447e+11
6.063958e+04, 2.019975e+11
6.070022e+04, 2.007843e+11
6.076092e+04, 1.854072e+11
6.082168e+04, 2.127533e+11
6.088251e+04, 2.012805e+11
6.094339e+04, 2.018159e+11
6.100433e+04, 1.756925e+11
6.106534e+04, 1.896928e+11
6.112640e+04, 1.663129e+11
6.118753e+04, 1.794357e+11
6.124872e+04, 2.000014e+11
6.130996e+04, 2.189394e+11
6.137127e+04, 2.159728e+11
6.143265e+04, 1.805286e+11
6.149408e+04, 1.932640e+11
6.155557e+04, 1.868604e+11
6.161713e+04, 1.845640e+11
6.167874e+04, 1.861001e+11
6.174042e+04, 1.747722e+11
6.180216e+04, 2.022780e+11
6.186397e+04, 1.811009e+11
6.192583e+04, 1.945161e+11
6.198776e+04, 1.899556e+11
6.204974e+04, 1.904181e+11
6.211179e+04, 1.983055e+11
6.217390e+04, 1.781401e+11
6.223608e+04, 1.950442e+11
6.229831e+04, 2.025532e+11
6.236061e+04, 1.873549e+11
6.242297e+04, 1.667468e+11
6.248540e+04, 1.870063e+11
6.254788e+04, 1.984026e+11
6.261043e+04, 1.770993e+11
6.267304e+04, 1.918196e+11
6.273571e+04, 1.841590e+11
6.279845e+04, 1.735555e+11
6.286125e+04, 2.044243e+11
6.292411e+04, 1.819649e+11
6.298703e+04, 1.824131e+11
6.305002e+04, 1.987769e+11
6.311307e+04, 1.891856e+11
6.317618e+04, 1.688007e+11
6.323936e+04, 1.834856e+11
6.330260e+04, 1.921152e+11
6.336590e+04, 1.750289e+11
6.342927e+04, 1.705632e+11
6.349270e+04, 1.828128e+11
6.355619e+04, 1.538010e+11
6.361975e+04, 1.858277e+11
6.368337e+04, 1.857317e+11
6.374705e+04, 1.715446e+11
6.381080e+04, 1.656480e+11
6.387461e+04, 1.467218e+11
6.393848e+04, 1.817316e+11
6.400242e+04, 1.878854e+11
6.406642e+04, 1.555046e+11
6.413049e+04, 1.417989e+11
6.419462e+04, 1.503669e+11
6.425881e+04, 1.822498e+11
6.432307e+04, 1.506724e+11
6.438740e+04, 1.608272e+11
6.445178e+04, 1.615509e+11
6.451623e+04, 1.381990e+11
6.458075e+04, 1.454286e+11
6.464533e+04, 1.620749e+11
6.470998e+04, 1.135359e+11
6.477469e+04, 1.266050e+11
6.483946e+04, 1.219761e+11
6.490430e+04, 1.468424e+11
6.496921e+04, 1.298437e+11
6.503417e+04, 1.221205e+11
6.509921e+04, 1.473571e+11
6.516431e+04, 1.254192e+11
6.522947e+04, 1.353148e+11
6.529470e+04, 1.255333e+11
6.536000e+04, 1.347709e+11
6.542536e+04, 1.268872e+11
6.549078e+04, 1.238757e+11
6.555627e+04, 1.269939e+11
6.562183e+04, 1.148193e+11
6.568745e+04, 1.153692e+11
6.575314e+04, 1.178103e+11
6.581889e+04, 1.360962e+11
6.588471e+04, 1.240943e+11
6.595059e+04, 8.929633e+10
6.601655e+04, 1.151178e+11
6.608256e+04, 1.309828e+11
6.614864e+04, 1.118750e+11
6.621479e+04, 9.729049e+10
6.628101e+04, 1.042466e+11
6.634729e+04, 1.044560e+11
6.641364e+04, 1.053138e+11
6.648005e+04, 1.244308e+11
6.654653e+04, 1.144517e+11
6.661308e+04, 1.111261e+11
6.667969e+04, 1.140735e+11
6.674637e+04, 1.166094e+11
6.681312e+04, 1.057955e+11
6.687993e+04, 9.889237e+10
6.694681e+04, 1.154932e+11
6.701376e+04, 1.167104e+11
6.708077e+04, 1.218764e+11
6.714785e+04, 1.066092e+11
6.721500e+04, 1.091705e+11
6.728221e+04, 1.095894e+11
6.734949e+04, 1.126801e+11
6.741684e+04, 1.162458e+11
6.748426e+04, 1.045340e+11
6.755175e+04, 1.119462e+11
6.761930e+04, 1.196277e+11
6.768692e+04, 1.058380e+11
6.775460e+04, 1.049494e+11
6.782236e+04, 1.021290e+11
6.789018e+04, 1.032370e+11
6.795807e+04, 1.023490e+11
6.802603e+04, 1.108218e+11
6.809405e+04, 1.041752e+11
6.816215e+04, 9.125038e+10
6.823031e+04, 1.042529e+11
6.829854e+04, 9.778795e+10
6.836684e+04, 8.485861e+10
6.843521e+04, 1.163812e+11
6.850364e+04, 1.070683e+11
6.857215e+04, 9.715878e+10
6.864072e+04, 1.003011e+11
6.870936e+04, 9.803800e+10
6.877807e+04, 1.120624e+11
6.884685e+04, 9.660674e+10
6.891569e+04, 1.084750e+11
6.898461e+04, 1.096237e+11
6.905359e+04, 9.513147e+10
6.912265e+04, 1.094494e+11
6.919177e+04, 9.670041e+10
6.926096e+04, 1.013644e+11
6.933022e+04, 1.073269e+11
6.939955e+04, 1.004469e+11
6.946895e+04, 1.048350e+11
6.953842e+04, 1.027476e+11
6.960796e+04, 9.409940e+10
6.967757e+04, 9.798323e+10
6.974724e+04, 1.043518e+11
6.981699e+04, 9.993936e+10
6.988681e+04, 1.080168e+11
6.995670e+04, 1.128086e+11
7.002665e+04, 9.689376e+10
7.009668e+04, 8.766096e+10
7.016678e+04, 9.996167e+10
7.023694e+04, 8.887336e+10
7.030718e+04, 9.524584e+10
7.037749e+04, 1.097236e+11
7.044786e+04, 8.832048e+10
7.051831e+04, 8.907243e+10
7.058883e+04, 1.028309e+11
7.065942e+04, 1.026431e+11
7.073008e+04, 8.994312e+10
7.080081e+04, 9.301925e+10
7.087161e+04, 9.535789e+10
7.094248e+04, 9.056987e+10
7.101342e+04, 9.789957e+10
7.108444e+04, 8.920674e+10
7.115552e+04, 9.517721e+10
7.122668e+04, 8.683286e+10
7.129790e+04, 9.743410e+10
7.136920e+04, 9.282907e+10
7.144057e+04, 9.278331e+10
7.151201e+04, 8.778902e+10
7.158352e+04, 1.043382e+11
7.165511e+04, 1.044248e+11
7.172676e+04, 9.148248e+10
7.179849e+04, 1.013679e+11
7.187029e+04, 9.993255e+10
7.194216e+04, 9.351657e+10
7.201410e+04, 9.192064e+10
7.208611e+04, 9.016234e+10
7.215820e+04, 9.314947e+10
7.223036e+04, 9.318682e+10
7.230259e+04, 9.138846e+10
7.237489e+04, 8.892513e+10
7.244727e+04, 9.266483e+10
7.251971e+04, 9.462618e+10
7.259223e+04, 8.774006e+10
7.266482e+04, 9.841054e+10
7.273749e+04, 8.388872e+10
7.281023e+04, 9.454864e+10
7.288304e+04, 9.089642e+10
7.295592e+04, 8.333999e+10
7.302888e+04, 8.491929e+10
7.310191e+04, 9.518290e+10
7.317501e+04, 9.449170e+10
7.324818e+04, 9.311038e+10
7.332143e+04, 7.984654e+10
7.339475e+04, 8.268233e+10
7.346815e+04, 8.095312e+10
7.354161e+04, 9.009214e+10
7.361516e+04, 8.365287e+10
7.368877e+04, 9.001267e+10
7.376246e+04, 7.925892e+10
7.383622e+04, 8.519078e+10
7.391006e+04, 9.442488e+10
7.398397e+04, 9.054419e+10
7.405795e+04, 8.806244e+10
7.413201e+04, 8.503369e+10
7.420614e+04, 8.326574e+10
7.428035e+04, 8.416301e+10
7.435463e+04, 7.491733e+10
7.442898e+04, 8.525528e+10
7.450341e+04, 9.282919e+10
7.457792e+04, 8.226779e+10
7.465249e+04, 8.383747e+10
7.472715e+04, 8.114421e+10
7.480187e+04, 8.428462e+10
7.487668e+04, 9.834559e+10
7.495155e+04, 7.913999e+10
7.502650e+04, 8.186904e+10
7.510153e+04, 8.757051e+10
7.517663e+04, 8.459427e+10
7.525181e+04, 8.430666e+10
7.532706e+04, 7.705431e+10
7.540239e+04, 7.757677e+10
7.547779e+04, 8.403343e+10
7.555327e+04, 8.218178e+10
7.562882e+04, 8.984619e+10
7.570445e+04, 7.726360e+10
7.578015e+04, 7.583488e+10
7.585593e+04, 7.248116e+10
7.593179e+04, 8.252381e+10
7.600772e+04, 6.797571e+10
7.608373e+04, 7.234341e+10
7.615981e+04, 7.027760e+10
7.623597e+04, 8.183817e+10
7.631221e+04, 7.002768e+10
7.638852e+04, 7.802591e+10
7.646491e+04, 7.790678e+10
7.654138e+04, 7.531113e+10
7.661792e+04, 7.176986e+10
7.669453e+04, 7.209166e+10
7.677123e+04, 7.575803e+10
7.684800e+04, 7.739016e+10
7.692485e+04, 7.427931e+10
7.700177e+04, 7.547548e+10
7.707877e+04, 7.017695e+10
7.715585e+04, 7.170808e+10
7.723301e+04, 7.471005e+10
7.731024e+04, 7.307604e+10
7.738755e+04, 6.470126e+10
7.746494e+04, 6.525168e+10
7.754241e+04, 7.202100e+10
7.761995e+04, 6.836841e+10
7.769757e+04, 6.697695e+10
7.777527e+04, 7.286717e+10
7.785304e+04, 7.052589e+10
7.793089e+04, 7.191366e+10
7.800882e+04, 6.479415e+10
7.808683e+04, 6.413416e+10
7.816492e+04, 6.830783e+10
7.824308e+04, 7.542218e+10
7.832133e+04, 6.541545e+10
7.839965e+04, 7.171687e+10
7.847805e+04, 7.303116e+10
7.855653e+04, 6.414665e+10
7.863508e+04, 6.517680e+10
7.871372e+04, 6.264268e+10
7.879243e+04, 6.611527e+10
7.887122e+04, 5.863681e+10
7.895010e+04, 5.820448e+10
7.902905e+04, 6.300133e+10
7.910808e+04, 6.211816e+10
7.918718e+04, 6.628555e+10
7.926637e+04, 6.204639e+10
7.934564e+04, 6.746785e+10
7.942498e+04, 6.510129e+10
7.950441e+04, 6.602898e+10
7.958391e+04, 5.892539e+10
7.966350e+04, 6.022607e+10
7.974316e+04, 6.346771e+10
7.982290e+04, 5.839299e+10
7.990273e+04, 6.136314e+10
7.998263e+04, 6.559518e+10
8.006261e+04, 6.117355e+10
8.014267e+04, 6.314023e+10
8.022282e+04, 5.979588e+10
8.030304e+04, 6.631175e+10
8.038334e+04, 6.044101e+10
8.046373e+04, 5.887522e+10
8.054419e+04, 6.034338e+10
8.062473e+04, 6.268119e+10
8.070536e+04, 6.042117e+10
8.078606e+04, 5.955468e+10
8.086685e+04, 6.517393e+10
8.094772e+04, 6.064934e+10
8.102866e+04, 5.598356e+10
8.110969e+04, 5.767095e+10
8.119080e+04, 6.018767e+10
8.127199e+04, 5.861029e+10
8.135326e+04, 6.423622e+10
8.143462e+04, 6.126743e+10
8.151605e+04, 5.882538e+10
8.159757e+04, 5.481294e+10
8.167917e+04, 6.094476e+10
8.176085e+04, 6.117450e+10
8.184261e+04, 6.028038e+10
8.192445e+04, 5.738158e+10
8.200637e+04, 5.616968e+10
8.208838e+04, 5.499426e+10
8.217047e+04, 5.779566e+10
8.225264e+04, 5.796519e+10
8.233489e+04, 5.613108e+10
8.241723e+04, 5.755420e+10
8.249964e+04, 5.967163e+10
8.258214e+04, 6.140002e+10
8.266473e+04, 5.414300e+10
8.274739e+04, 5.854411e+10
8.283014e+04, 5.285784e+10
8.291297e+04, 5.880252e+10
8.299588e+04, 5.841541e+10
8.307888e+04, 5.764859e+10
8.316196e+04, 5.599549e+10
8.324512e+04, 5.163788e+10
8.332836e+04, 5.342481e+10
8.341169e+04, 5.514937e+10
8.349510e+04, 5.406530e+10
8.357860e+04, 5.609276e+10
8.366218e+04, 5.637942e+10
8.374584e+04, 5.073784e+10
8.382958e+04, 5.176033e+10
8.391341e+04, 5.167499e+10
8.399733e+04, 5.869876e+10
8.408132e+04, 5.775296e+10
8.416541e+04, 5.909106e+10
8.424957e+04, 5.257193e+10
8.433382e+04, 5.537545e+10
8.441815e+04, 5.463508e+10
8.450257e+04, 5.232689e+10
8.458708e+04, 5.263398e+10
8.467166e+04, 5.637204e+10
8.475633e+04, 5.567901e+10
8.484109e+04, 5.235542e+10
8.492593e+04, 5.104054e+10
8.501086e+04, 4.885382e+10
8.509587e+04, 5.425992e+10
8.518096e+04, 5.350139e+10
8.526614e+04, 5.510955e+10
8.535141e+04, 5.201735e+10
8.543676e+04, 5.128989e+10
8.552220e+04, 5.283946e+10
8.560772e+04, 5.035766e+10
8.569333e+04, 5.107988e+10
8.577902e+04, 5.311455e+10
8.586480e+04, 5.301504e+10
8.595067e+04, 5.214388e+10
8.603662e+04, 5.472579e+10
8.612265e+04, 5.295549e+10
8.620878e+04, 4.939069e+10
8.629499e+04, 4.966645e+10
8.638128e+04, 5.392107e+10
8.646766e+04, 5.220390e+10
8.655413e+04, 5.014744e+10
8.664068e+04, 5.491735e+10
8.672732e+04, 4.925262e+10
8.681405e+04, 4.748057e+10
8.690087e+04, 5.313776e+10
8.698777e+04, 5.541343e+10
8.707475e+04, 5.000646e+10
8.716183e+04, 5.014207e+10
8.724899e+04, 4.962938e+10
8.733624e+04, 4.672263e+10
8.742358e+04, 4.991355e+10
8.751100e+04, 5.014411e+10
8.759851e+04, 4.454494e+10
8.768611e+04, 4.865169e+10
8.777379e+04, 5.169696e+10
8.786157e+04, 4.821453e+10
8.794943e+04, 4.904125e+10
8.803738e+04, 4.553442e+10
8.812542e+04, 4.841283e+10
8.821354e+04, 4.749324e+10
8.830176e+04, 4.898983e+10
8.839006e+04, 4.640333e+10
8.847845e+04, 5.134791e+10
8.856693e+04, 4.887617e+10
8.865549e+04, 4.792300e+10
8.874415e+04, 4.876585e+10
8.883289e+04, 4.819950e+10
8.892173e+04, 4.857640e+10
8.901065e+04, 5.036080e+10
8.909966e+04, 4.776071e+10
8.918876e+04, 4.613701e+10
8.927795e+04, 5.043485e+10
8.936722e+04, 4.973085e+10
8.945659e+04, 4.469463e+10
8.954605e+04, 4.806432e+10
8.963559e+04, 4.913461e+10
8.972523e+04, 4.495791e+10
8.981496e+04, 4.344227e+10
8.990477e+04, 4.992940e+10
8.999467e+04, 4.623189e+10
9.008467e+04, 5.000262e+10
9.017475e+04, 4.557584e+10
9.026493e+04, 4.639463e+10
9.035519e+04, 4.494768e+10
9.044555e+04, 4.783009e+10
9.053599e+04, 4.916525e+10
9.062653e+04, 4.267300e+10
9.071716e+04, 4.687359e+10
9.080787e+04, 4.860436e+10
9.089868e+04, 4.408381e+10
9.098958e+04, 4.780860e+10
9.108057e+04, 4.484412e+10
9.117165e+04, 4.651764e+10
9.126282e+04, 4.558945e+10
9.135409e+04, 4.502076e+10
9.144544e+04, 4.927520e+10
9.153688e+04, 4.326284e+10
9.162842e+04, 4.708259e+10
9.172005e+04, 4.321848e+10
9.181177e+04, 4.531813e+10
9.190358e+04, 4.687495e+10
9.199549e+04, 4.391964e+10
9.208748e+04, 4.558905e+10
9.217957e+04, 4.713932e+10
9.227175e+04, 4.495950e+10
9.236402e+04, 4.705485e+10
9.245638e+04, 4.273232e+10
9.254884e+04, 4.268268e+10
9.264139e+04, 4.457929e+10
9.273403e+04, 4.387154e+10
9.282676e+04, 4.289084e+10
9.291959e+04, 4.351704e+10
9.301251e+04, 4.363633e+10
9.310552e+04, 4.532525e+10
9.319863e+04, 4.343499e+10
9.329183e+04, 4.472578e+10
9.338512e+04, 4.228370e+10
9.347850e+04, 4.575225e+10
9.357198e+04, 4.505478e+10
9.366556e+04, 4.611458e+10
9.375922e+04, 4.164549e+10
9.385298e+04, 4.381259e+10
9.394683e+04, 4.314609e+10
9.404078e+04, 4.064675e+10
9.413482e+04, 4.192781e+10
9.422896e+04, 4.278790e+10
9.432318e+04, 4.430539e+10
9.441751e+04, 3.778158e+10
9.451192e+04, 4.485727e+10
9.460644e+04, 4.140081e+10
9.470104e+04, 4.463810e+10
9.479574e+04, 4.161064e+10
9.489054e+04, 4.388643e+10
9.498543e+04, 3.972226e+10
9.508042e+04, 4.319720e+10
9.517550e+04, 4.210225e+10
9.527067e+04, 4.195218e+10
9.536594e+04, 4.304306e+10
9.546131e+04, 4.484612e+10
9.555677e+04, 4.350451e+10
9.565233e+04, 4.269314e+10
9.574798e+04, 4.164211e+10
9.584373e+04, 4.061662e+10
9.593957e+04, 4.049722e+10
9.603551e+04, 3.869072e+10
9.613155e+04, 4.126006e+10
9.622768e+04, 3.964752e+10
9.632390e+04, 4.045694e+10
9.642023e+04, 3.941240e+10
9.651665e+04, 3.918641e+10
9.661317e+04, 3.953328e+10
9.670978e+04, 4.157055e+10
9.680649e+04, 3.879612e+10
9.690330e+04, 4.128711e+10
9.700020e+04, 3.980645e+10
9.709720e+04, 4.006012e+10
9.719430e+04, 4.039704e+10
9.729149e+04, 4.084554e+10
9.738878e+04, 4.040817e+10
9.748617e+04, 4.154387e+10
9.758366e+04, 3.950016e+10
9.768124e+04, 4.167691e+10
9.777892e+04, 3.807956e+10
9.787670e+04, 3.992204e+10
9.797458e+04, 4.193195e+10
9.807255e+04, 3.961408e+10
9.817062e+04, 3.780211e+10
9.826879e+04, 3.726556e+10
9.836706e+04, 3.988127e+10
9.846543e+04, 3.957747e+10
9.856390e+04, 3.558434e+10
9.866246e+04, 3.945779e+10
9.876112e+04, 4.215962e+10
9.885988e+04, 3.378409e+10
9.895874e+04, 3.175822e+10
9.905770e+04, 3.844682e+10
9.915676e+04, 3.643896e+10
9.925592e+04, 3.625315e+10
9.935517e+04, 3.870344e+10
9.945453e+04, 4.037555e+10
9.955398e+04, 3.725159e+10
9.965354e+04, 3.762119e+10
9.975319e+04, 3.855374e+10
9.985294e+04, 3.658641e+10
9.995280e+04, 3.634984e+10
1.000527e+05, 3.792621e+10
1.001528e+05, 3.629168e+10
1.002530e+05, 3.739165e+10
1.003532e+05, 3.757338e+10
1.004536e+05, 3.855513e+10
1.005540e+05, 3.583249e+10
1.006546e+05, 3.400587e+10
1.007552e+05, 3.481411e+10
1.008560e+05, 3.393196e+10
1.009568e+05, 3.484626e+10
1.010578e+05, 3.601553e+10
1.011588e+05, 3.460121e+10
1.012600e+05, 3.556707e+10
1.013613e+05, 3.651365e+10
1.014626e+05, 3.551309e+10
1.015641e+05, 3.765547e+10
1.016657e+05, 3.599555e+10
1.017673e+05, 3.411950e+10
1.018691e+05, 3.539227e+10
1.019710e+05, 3.769172e+10
1.020729e+05, 3.564777e+10
1.021750e+05, 3.210581e+10
1.022772e+05, 3.514635e+10
1.023795e+05, 3.410995e+10
1.024818e+05, 3.435694e+10
1.025843e+05, 3.547052e+10
1.026869e+05, 3.307498e+10
1.027896e+05, 3.082002e+10
1.028924e+05, 3.429936e+10
1.029953e+05, 3.422957e+10
1.030983e+05, 3.327628e+10
1.032014e+05, 3.258736e+10
1.033046e+05, 3.090094e+10
1.034079e+05, 3.268349e+10
1.035113e+05, 3.507899e+10
1.036148e+05, 3.070488e+10
1.037184e+05, 3.321241e+10
1.038221e+05, 3.261562e+10
1.039259e+05, 3.446728e+10
1.040299e+05, 3.006487e+10
1.041339e+05, 3.257594e+10
1.042380e+05, 2.923851e+10
1.043423e+05, 3.139005e+10
1.044466e+05, 3.304326e+10
1.045511e+05, 3.140299e+10
1.046556e+05, 3.118509e+10
1.047603e+05, 3.001962e+10
1.048650e+05, 3.031267e+10
1.049699e+05, 3.286976e+10
1.050749e+05, 2.964184e+10
1.051799e+05, 3.222382e+10
1.052851e+05, 3.162725e+10
1.053904e+05, 3.193674e+10
1.054958e+05, 3.086272e+10
1.056013e+05, 2.915837e+10
1.057069e+05, 2.867730e+10
1.058126e+05, 2.935311e+10
1.059184e+05, 2.894690e+10
1.060243e+05, 2.962976e+10
1.061303e+05, 2.680847e+10
1.062365e+05, 3.179419e+10
1.063427e+05, 2.801786e+10
1.064491e+05, 3.042592e+10
1.065555e+05, 2.974673e+10
1.066621e+05, 3.038269e+10
1.067687e+05, 2.968675e+10
1.068755e+05, 3.000293e+10
1.069824e+05, 3.075340e+10
1.070894e+05, 2.663718e+10
1.071964e+05, 2.965897e+10
1.073036e+05, 2.850125e+10
1.074109e+05, 2.832829e+10
1.075184e+05, 2.746706e+10
1.076259e+05, 2.704776e+10
1.077335e+05, 2.857206e+10
1.078412e+05, 2.717510e+10
1.079491e+05, 2.810950e+10
1.080570e+05, 3.062972e+10
1.081651e+05, 2.820600e+10
1.082732e+05, 2.711628e+10
1.083815e+05, 3.049587e+10
1.084899e+05, 2.798210e+10
1.085984e+05, 2.900114e+10
1.087070e+05, 2.737889e+10
1.088157e+05, 2.679675e+10
1.089245e+05, 2.510596e+10
1.090334e+05, 2.569412e+10
1.091425e+05, 2.733314e+10
1.092516e+05, 2.663501e+10
1.093609e+05, 2.475052e+10
1.094702e+05, 2.638709e+10
1.095797e+05, 2.855203e+10
1.096893e+05, 2.455000e+10
1.097990e+05, 2.459079e+10
1.099088e+05, 2.322668e+10
1.100187e+05, 2.658376e+10
1.101287e+05, 2.597724e+10
1.102388e+05, 2.552136e+10
1.103491e+05, 2.589453e+10
1.104594e+05, 2.346745e+10
1.105699e+05, 2.388763e+10
1.106804e+05, 2.522245e+10
1.107911e+05, 2.456183e+10
1.109019e+05, 2.536751e+10
1.110128e+05, 2.593444e+10
1.111238e+05, 2.386279e+10
1.112349e+05, 2.462821e+10
1.113462e+05, 2.411222e+10
1.114575e+05, 2.640084e+10
1.115690e+05, 2.463547e+10
1.116806e+05, 2.399876e+10
1.117922e+05, 2.281071e+10
1.119040e+05, 2.390732e+10
1.120159e+05, 2.228698e+10
1.121279e+05, 2.439516e+10
1.122401e+05, 2.338207e+10
1.123523e+05, 2.379854e+10
1.124647e+05, 2.489079e+10
1.125771e+05, 2.395769e+10
1.126897e+05, 2.322597e+10
1.128024e+05, 2.458832e+10
1.129152e+05, 2.334561e+10
1.130281e+05, 2.285179e+10
1.131411e+05, 2.131554e+10
1.132543e+05, 2.293363e+10
1.133675e+05, 2.299267e+10
1.134809e+05, 2.429888e+10
1.135944e+05, 2.256525e+10
1.137080e+05, 2.189479e+10
1.138217e+05, 2.221274e+10
1.139355e+05, 2.337046e+10
1.140494e+05, 2.318885e+10
1.141635e+05, 2.543541e+10
1.142777e+05, 2.238149e+10
1.143919e+05, 2.070135e+10
1.145063e+05, 2.044536e+10
1.146208e+05, 2.330955e+10
1.147355e+05, 2.159442e+10
1.148502e+05, 2.145556e+10
1.149650e+05, 2.230522e+10
1.150800e+05, 2.276822e+10
1.151951e+05, 2.119841e+10
1.153103e+05, 2.084282e+10
1.154256e+05, 2.093029e+10
1.155410e+05, 1.874868e+10
1.156566e+05, 2.036679e+10
1.157722e+05, 2.121710e+10
1.158880e+05, 2.160607e+10
1.160039e+05, 1.939412e+10
1.161199e+05, 2.098696e+10
1.162360e+05, 2.088460e+10
1.163522e+05, 1.982836e+10
1.164686e+05, 2.045332e+10
1.165851e+05, 2.150414e+10
1.167016e+05, 2.104803e+10
1.168183e+05, 2.014051e+10
1.169352e+05, 2.031155e+10
1.170521e+05, 2.103512e+10
1.171691e+05, 1.871095e+10
1.172863e+05, 1.871342e+10
1.174036e+05, 1.862357e+10
1.175210e+05, 1.860984e+10
1.176385e+05, 1.898530e+10
1.177562e+05, 1.910746e+10
1.178739e+05, 1.964912e+10
1.179918e+05, 1.850897e+10
1.181098e+05, 2.053752e+10
1.182279e+05, 1.935723e+10
1.183461e+05, 1.750999e+10
1.184645e+05, 2.100973e+10
1.185829e+05, 1.699307e+10
1.187015e+05, 1.957583e+10
1.188202e+05, 2.022343e+10
1.189390e+05, 1.912199e+10
1.190580e+05, 1.683204e+10
1.191770e+05, 1.914408e+10
1.192962e+05, 1.861973e+10
1.194155e+05, 1.954281e+10
1.195349e+05, 1.833195e+10
1.196545e+05, 1.682642e+10
1.197741e+05, 1.992216e+10
1.198939e+05, 1.888442e+10
1.200138e+05, 1.752328e+10
1.201338e+05, 1.829619e+10
1.202539e+05, 1.762119e+10
1.203742e+05, 1.909590e+10
1.204946e+05, 1.731390e+10
1.206151e+05, 1.756145e+10
1.207357e+05, 1.920251e+10
1.208564e+05, 1.700347e+10
1.209773e+05, 1.878517e+10
1.210982e+05, 1.856176e+10
1.212193e+05, 1.696087e+10
1.213406e+05, 1.861144e+10
1.214619e+05, 1.600368e+10
1.215834e+05, 1.598202e+10
1.217049e+05, 1.890179e+10
1.218266e+05, 1.824001e+10
1.219485e+05, 1.777586e+10
1.220704e+05, 1.723289e+10
1.221925e+05, 1.703693e+10
1.223147e+05, 1.828223e+10
1.224370e+05, 1.580157e+10
1.225594e+05, 1.713716e+10
1.226820e+05, 1.756006e+10
1.228047e+05, 1.600325e+10
1.229275e+05, 1.677666e+10
1.230504e+05, 1.731808e+10
1.231735e+05, 1.556916e+10
1.232966e+05, 1.650798e+10
1.234199e+05, 1.730409e+10
1.235433e+05, 1.638387e+10
1.236669e+05, 1.617537e+10
1.237906e+05, 1.631907e+10
1.239144e+05, 1.711591e+10
1.240383e+05, 1.500494e+10
1.241623e+05, 1.533822e+10
1.242865e+05, 1.455597e+10
1.244108e+05, 1.462825e+10
1.245352e+05, 1.503375e+10
1.246597e+05, 1.599610e+10
1.247844e+05, 1.563280e+10
1.249091e+05, 1.590751e+10
1.250341e+05, 1.584056e+10
1.251591e+05, 1.520238e+10
1.252842e+05, 1.447150e+10
1.254095e+05, 1.431343e+10
1.255349e+05, 1.517788e+10
1.256605e+05, 1.498474e+10
1.257861e+05, 1.536250e+10
1.259119e+05, 1.420980e+10
1.260378e+05, 1.452719e+10
1.261639e+05, 1.573511e+10
1.262900e+05, 1.486113e+10
1.264163e+05, 1.536540e+10
1.265427e+05, 1.415992e+10
1.266693e+05, 1.397405e+10
1.267960e+05, 1.391084e+10
1.269227e+05, 1.540997e+10
1.270497e+05, 1.503649e+10
1.271767e+05, 1.447006e+10
1.273039e+05, 1.437367e+10
1.274312e+05, 1.585986e+10
1.275586e+05, 1.361788e+10
1.276862e+05, 1.336776e+10
1.278139e+05, 1.397666e+10
1.279417e+05, 1.413752e+10
1.280696e+05, 1.308007e+10
1.281977e+05, 1.368307e+10
1.283259e+05, 1.481198e+10
1.284542e+05, 1.334005e+10
1.285827e+05, 1.409582e+10
1.287113e+05, 1.425866e+10
1.288400e+05, 1.524648e+10
1.289688e+05, 1.425406e+10
1.290978e+05, 1.415630e+10
1.292269e+05, 1.309379e+10
1.293561e+05, 1.293233e+10
1.294855e+05, 1.351926e+10
1.296149e+05, 1.363493e+10
1.297446e+05, 1.326647e+10
1.298743e+05, 1.299064e+10
1.300042e+05, 1.418494e+10
1.301342e+05, 1.373994e+10
1.302643e+05, 1.225829e+10
1.303946e+05, 1.296743e+10
1.305250e+05, 1.317976e+10
1.306555e+05, 1.461160e+10
1.307862e+05, 1.316093e+10
1.309169e+05, 1.279324e+10
1.310479e+05, 1.432257e+10
1.311789e+05, 1.338190e+10
1.313101e+05, 1.336441e+10
1.314414e+05, 1.232978e+10
1.315728e+05, 1.281900e+10
1.317044e+05, 1.305957e+10
1.318361e+05, 1.202769e+10
1.319680e+05, 1.380619e+10
1.320999e+05, 1.122388e+10
1.322320e+05, 1.209650e+10
1.323643e+05, 1.254137e+10
1.324966e+05, 1.262213e+10
1.326291e+05, 1.176293e+10
1.327617e+05, 1.268767e+10
1.328945e+05, 1.169689e+10
1.330274e+05, 1.234175e+10
1.331604e+05, 1.196316e+10
1.332936e+05, 1.217848e+10
1.334269e+05, 1.193764e+10
1.335603e+05, 1.200476e+10
1.336939e+05, 1.286999e+10
1.338276e+05, 1.230121e+10
1.339614e+05, 1.277051e+10
1.340954e+05, 1.276810e+10
1.342294e+05, 1.140038e+10
1.343637e+05, 1.222610e+10
1.344980e+05, 1.084230e+10
1.346325e+05, 1.160599e+10
1.347672e+05, 1.155942e+10
1.349019e+05, 1.089603e+10
1.350368e+05, 1.202870e+10
1.351719e+05, 1.213089e+10
1.353070e+05, 1.130878e+10
1.354424e+05, 1.109781e+10
1.355778e+05, 1.129911e+10
1.357134e+05, 1.064317e+10
1.358491e+05, 1.149551e+10
1.359849e+05, 1.151339e+10
1.361209e+05, 1.127477e+10
1.362570e+05, 1.109095e+10
1.363933e+05, 1.056577e+10
1.365297e+05, 1.074579e+10
1.366662e+05, 1.186397e+10
1.368029e+05, 1.173219e+10
1.369397e+05, 1.046348e+10
1.370766e+05, 1.035107e+10
1.372137e+05, 1.037988e+10
1.373509e+05, 1.150745e+10
1.374883e+05, 1.048486e+10
1.376258e+05, 9.692251e+09
1.377634e+05, 1.040463e+10
1.379012e+05, 1.102213e+10
1.380391e+05, 1.112085e+10
1.381771e+05, 1.082549e+10
1.383153e+05, 1.145427e+10
1.384536e+05, 1.010935e+10
1.385920e+05, 9.896513e+09
1.387306e+05, 1.126040e+10
1.388694e+05, 1.100172e+10
1.390082e+05, 1.070804e+10
1.391472e+05, 1.034367e+10
1.392864e+05, 1.083127e+10
1.394257e+05, 1.059057e+10
1.395651e+05, 1.003996e+10
1.397047e+05, 9.787028e+09
1.398444e+05, 1.074379e+10
1.399842e+05, 9.874912e+09
1.401242e+05, 9.304435e+09
1.402643e+05, 1.017996e+10
1.404046e+05, 1.036053e+10
1.405450e+05, 1.052359e+10
1.406855e+05, 9.490789e+09
1.408262e+05, 1.036752e+10
1.409670e+05, 1.091842e+10
1.411080e+05, 9.842739e+09
1.412491e+05, 9.249352e+09
1.413904e+05, 9.190380e+09
1.415318e+05, 9.338161e+09
1.416733e+05, 8.980703e+09
1.418150e+05, 9.395595e+09
1.419568e+05, 9.519720e+09
1.420987e+05, 8.661326e+09
1.422408e+05, 1.008872e+10
1.423831e+05, 9.640148e+09
1.425255e+05, 1.019227e+10
1.426680e+05, 9.827866e+09
1.428107e+05, 9.775308e+09
1.429535e+05, 9.730052e+09
1.430964e+05, 1.011232e+10
1.432395e+05, 8.354610e+09
1.433828e+05, 9.070547e+09
1.435261e+05, 9.321080e+09
1.436697e+05, 9.245393e+09
1.438133e+05, 9.396507e+09
1.439571e+05, 9.370564e+09
1.441011e+05, 9.043732e+09
1.442452e+05, 9.091400e+09
1.443894e+05, 9.372895e+09
1.445338e+05, 8.780840e+09
1.446784e+05, 8.669602e+09
1.448231e+05, 8.187244e+09
1.449679e+05, 8.162176e+09
1.451128e+05, 9.388390e+09
1.452580e+05, 8.627161e+09
1.454032e+05, 8.665830e+09
1.455486e+05, 8.746425e+09
1.456942e+05, 9.447722e+09
1.458399e+05, 8.603700e+09
1.459857e+05, 8.678763e+09
1.461317e+05, 9.184732e+09
1.462778e+05, 8.264273e+09
1.464241e+05, 8.022831e+09
1.465705e+05, 7.658899e+09
1.467171e+05, 7.884498e+09
1.468638e+05, 8.281801e+09
1.470107e+05, 8.334606e+09
1.471577e+05, 7.769214e+09
1.473048e+05, 8.688279e+09
1.474521e+05, 8.400547e+09
1.475996e+05, 9.055901e+09
1.477472e+05, 8.363708e+09
1.478949e+05, 8.418804e+09
1.480428e+05, 8.966731e+09
1.481909e+05, 8.339643e+09
1.483391e+05, 8.243160e+09
1.484874e+05, 8.114809e+09
1.486359e+05, 8.061291e+09
1.487845e+05, 8.150037e+09
1.489333e+05, 7.859214e+09
1.490823e+05, 8.036030e+09
1.492313e+05, 7.241871e+09
1.493806e+05, 8.413593e+09
1.495299e+05, 8.174720e+09
1.496795e+05, 7.565448e+09
1.498292e+05, 7.454382e+09
1.499790e+05, 8.383228e+09
1.501290e+05, 7.970742e+09
1.502791e+05, 8.422665e+09
1.504294e+05, 6.609332e+09
1.505798e+05, 8.010061e+09
1.507304e+05, 8.538454e+09
1.508811e+05, 7.902774e+09
1.510320e+05, 7.617186e+09
1.511830e+05, 7.540395e+09
1.513342e+05, 7.172511e+09
1.514855e+05, 7.900184e+09
1.516370e+05, 7.576130e+09
1.517887e+05, 6.851818e+09
1.519405e+05, 7.571255e+09
1.520924e+05, 8.032057e+09
1.522445e+05, 7.834396e+09
1.523967e+05, 7.665531e+09
1.525491e+05, 7.076490e+09
1.527017e+05, 7.641910e+09
1.528544e+05, 7.069807e+09
1.530072e+05, 7.366710e+09
1.531602e+05, 6.941917e+09
1.533134e+05, 6.956430e+09
1.534667e+05, 6.472175e+09
1.536202e+05, 7.090788e+09
1.537738e+05, 6.856961e+09
1.539276e+05, 6.626920e+09
1.540815e+05, 7.525287e+09
1.542356e+05, 6.812955e+09
1.543898e+05, 6.797024e+09
1.545442e+05, 6.666399e+09
1.546988e+05, 6.861762e+09
1.548534e+05, 6.716912e+09
1.550083e+05, 7.025746e+09
1.551633e+05, 6.806928e+09
1.553185e+05, 6.932383e+09
1.554738e+05, 7.153940e+09
1.556293e+05, 6.721967e+09
1.557849e+05, 6.949111e+09
1.559407e+05, 7.209836e+09
1.560966e+05, 7.070766e+09
1.562527e+05, 7.267149e+09
1.564090e+05, 6.562417e+09
1.565654e+05, 6.903831e+09
1.567219e+05, 6.482593e+09
1.568787e+05, 6.826588e+09
1.570355e+05, 6.825966e+09
1.571926e+05, 6.544902e+09
1.573498e+05, 6.832662e+09
1.575071e+05, 6.335282e+09
1.576646e+05, 6.327414e+09
1.578223e+05, 6.930541e+09
1.579801e+05, 6.524862e+09
1.581381e+05, 6.130825e+09
1.582962e+05, 6.501027e+09
1.584545e+05, 6.446415e+09
1.586130e+05, 6.002071e+09
1.587716e+05, 6.704106e+09
1.589304e+05, 6.171281e+09
1.590893e+05, 6.501585e+09
1.592484e+05, 6.099491e+09
1.594076e+05, 6.421110e+09
1.595670e+05, 6.153819e+09
1.597266e+05, 5.888506e+09
1.598863e+05, 5.684577e+09
1.600462e+05, 5.966887e+09
1.602063e+05, 6.165718e+09
1.603665e+05, 6.120369e+09
1.605268e+05, 5.983013e+09
1.606874e+05, 6.249049e+09
1.608481e+05, 5.853178e+09
1.610089e+05, 5.950004e+09
1.611699e+05, 5.548841e+09
1.613311e+05, 6.061016e+09
1.614924e+05, 6.077192e+09
1.616539e+05, 5.500753e+09
1.618156e+05, 6.143514e+09
1.619774e+05, 5.875864e+09
1.621394e+05, 5.492656e+09
1.623015e+05, 6.005792e+09
1.624638e+05, 6.058257e+09
1.626263e+05, 5.709967e+09
1.627889e+05, 5.290892e+09
1.629517e+05, 5.989137e+09
1.631146e+05, 5.906002e+09
1.632777e+05, 5.520718e+09
1.634410e+05, 6.091999e+09
1.636045e+05, 6.369164e+09
1.637681e+05, 5.732749e+09
1.639318e+05, 5.206608e+09
1.640958e+05, 5.794771e+09
1.642599e+05, 5.650633e+09
1.644241e+05, 5.902344e+09
1.645885e+05, 6.043762e+09
1.647531e+05, 5.197026e+09
1.649179e+05, 5.619724e+09
1.650828e+05, 5.846820e+09
1.652479e+05, 5.689824e+09
1.654131e+05, 5.524637e+09
1.655785e+05, 4.741074e+09
1.657441e+05, 5.291853e+09
1.659099e+05, 5.466405e+09
1.660758e+05, 5.154046e+09
1.662419e+05, 5.049461e+09
1.664081e+05, 5.122236e+09
1.665745e+05, 5.121173e+09
1.667411e+05, 5.415982e+09
1.669078e+05, 5.751019e+09
1.670747e+05, 5.216294e+09
1.672418e+05, 5.317215e+09
1.674090e+05, 5.324320e+09
1.675765e+05, 4.799989e+09
1.677440e+05, 5.642414e+09
1.679118e+05, 5.255747e+09
1.680797e+05, 5.315067e+09
1.682478e+05, 5.050929e+09
1.684160e+05, 4.752500e+09
1.685844e+05, 5.417814e+09
1.687530e+05, 4.762534e+09
1.689218e+05, 4.860921e+09
1.690907e+05, 5.144216e+09
1.692598e+05, 4.838370e+09
1.694290e+05, 5.322136e+09
1.695985e+05, 5.289587e+09
1.697681e+05, 5.138692e+09
1.699378e+05, 4.986630e+09
1.701078e+05, 5.216325e+09
1.702779e+05, 5.322812e+09
1.704482e+05, 5.315576e+09
1.706186e+05, 5.135087e+09
1.707892e+05, 4.751894e+09
1.709600e+05, 4.960408e+09
1.711310e+05, 4.927491e+09
1.713021e+05, 4.411671e+09
1.714734e+05, 4.670948e+09
1.716449e+05, 4.778119e+09
1.718165e+05, 4.720688e+09
1.719883e+05, 4.605939e+09
1.721603e+05, 4.691267e+09
1.723325e+05, 4.310942e+09
1.725048e+05, 4.458867e+09
1.726773e+05, 4.506296e+09
1.728500e+05, 4.534689e+09
1.730229e+05, 4.813266e+09
1.731959e+05, 4.703256e+09
1.733691e+05, 4.528441e+09
1.735424e+05, 4.458753e+09
1.737160e+05, 4.614201e+09
1.738897e+05, 4.932436e+09
1.740636e+05, 4.377996e+09
1.742377e+05, 5.109147e+09
1.744119e+05, 4.400124e+09
1.745863e+05, 4.347204e+09
1.747609e+05, 4.211432e+09
1.749357e+05, 4.609443e+09
1.751106e+05, 4.630838e+09
1.752857e+05, 4.087737e+09
1.754610e+05, 4.281042e+09
1.756364e+05, 4.556608e+09
1.758121e+05, 4.340218e+09
1.759879e+05, 4.276926e+09
1.761639e+05, 4.356444e+09
1.763400e+05, 3.818236e+09
1.765164e+05, 4.176438e+09
1.766929e+05, 4.268018e+09
1.768696e+05, 4.504454e+09
1.770465e+05, 4.231420e+09
1.772235e+05, 4.144328e+09
1.774007e+05, 4.402629e+09
1.775781e+05, 4.067888e+09
1.777557e+05, 4.117019e+09
1.779335e+05, 4.512607e+09
1.781114e+05, 4.418527e+09
1.782895e+05, 4.218362e+09
1.784678e+05, 4.210516e+09
1.786463e+05, 4.144528e+09
1.788249e+05, 4.409007e+09
1.790037e+05, 4.162150e+09
1.791827e+05, 4.107857e+09
1.793619e+05, 3.789650e+09
1.795413e+05, 3.947294e+09
1.797208e+05, 4.401025e+09
1.799006e+05, 4.732228e+09
1.800805e+05, 4.108816e+09
1.802605e+05, 3.656746e+09
1.804408e+05, 4.140218e+09
1.806212e+05, 3.920696e+09
1.808019e+05, 3.757420e+09
1.809827e+05, 3.909799e+09
1.811636e+05, 4.273309e+09
1.813448e+05, 3.888539e+09
1.815262e+05, 3.712035e+09
1.817077e+05, 3.580101e+09
1.818894e+05, 3.808946e+09
1.820713e+05, 4.169604e+09
1.822533e+05, 3.881081e+09
1.824356e+05, 3.897700e+09
1.826180e+05, 3.797359e+09
1.828007e+05, 3.897384e+09
1.829835e+05, 3.694631e+09
1.831664e+05, 3.817898e+09
1.833496e+05, 3.998789e+09
1.835330e+05, 3.887740e+09
1.837165e+05, 3.687637e+09
1.839002e+05, 3.566894e+09
1.840841e+05, 3.812740e+09
1.842682e+05, 3.546652e+09
1.844525e+05, 4.105257e+09
1.846369e+05, 3.882583e+09
1.848215e+05, 3.948522e+09
1.850064e+05, 3.765783e+09
1.851914e+05, 3.451639e+09
1.853766e+05, 3.602995e+09
1.855619e+05, 3.246679e+09
1.857475e+05, 3.679115e+09
1.859333e+05, 3.239513e+09
1.861192e+05, 3.561862e+09
1.863053e+05, 3.433966e+09
1.864916e+05, 3.479822e+09
1.866781e+05, 3.401703e+09
1.868648e+05, 3.799186e+09
1.870516e+05, 3.474807e+09
1.872387e+05, 3.216951e+09
1.874259e+05, 3.472425e+09
1.876134e+05, 3.245766e+09
1.878010e+05, 3.494644e+09
1.879888e+05, 3.768636e+09
1.881768e+05, 3.411898e+09
1.883649e+05, 3.489099e+09
1.885533e+05, 3.481844e+09
1.887419e+05, 3.456683e+09
1.889306e+05, 3.162675e+09
1.891195e+05, 3.489246e+09
1.893086e+05, 3.288103e+09
1.894980e+05, 3.294241e+09
1.896875e+05, 3.350511e+09
1.898771e+05, 3.422053e+09
1.900670e+05, 3.297198e+09
1.902571e+05, 3.515807e+09
1.904473e+05, 3.346809e+09
1.906378e+05, 3.393956e+09
1.908284e+05, 3.299815e+09
1.910193e+05, 3.627465e+09
1.912103e+05, 3.500276e+09
1.914015e+05, 3.288855e+09
1.915929e+05, 3.485183e+09
1.917845e+05, 2.976141e+09
1.919763e+05, 3.131247e+09
1.921682e+05, 2.879969e+09
1.923604e+05, 3.018539e+09
1.925528e+05, 3.122448e+09
1.927453e+05, 3.299959e+09
1.929381e+05, 2.988598e+09
1.931310e+05, 3.137241e+09
1.933241e+05, 3.069575e+09
1.935175e+05, 2.929313e+09
1.937110e+05, 3.159841e+09
1.939047e+05, 3.271990e+09
1.940986e+05, 3.078719e+09
1.942927e+05, 2.854025e+09
1.944870e+05, 3.065962e+09
1.946815e+05, 3.145237e+09
1.948762e+05, 3.137893e+09
1.950710e+05, 3.243112e+09
1.952661e+05, 2.952860e+09
1.954614e+05, 3.192881e+09
1.956568e+05, 2.811657e+09
1.958525e+05, 2.745154e+09
1.960483e+05, 3.161958e+09
1.962444e+05, 2.691279e+09
1.964406e+05, 2.792552e+09
1.966371e+05, 2.905785e+09
1.968337e+05, 3.025354e+09
1.970305e+05, 3.083395e+09
1.972276e+05, 3.055124e+09
1.974248e+05, 2.860397e+09
1.976222e+05, 3.042140e+09
1.978198e+05, 2.985609e+09
1.980177e+05, 2.788715e+09
1.982157e+05, 2.676390e+09
1.984139e+05, 2.672606e+09
1.986123e+05, 2.946169e+09
1.988109e+05, 2.842297e+09
1.990097e+05, 2.596641e+09
1.992087e+05, 2.968871e+09
1.994080e+05, 2.685255e+09
1.996074e+05, 2.780854e+09
1.998070e+05, 3.014447e+09