wavelength[Angstrom], flux[erg / (cm3 s)]
1.000000e+03, 4.733153e-04
1.001000e+03, 2.462540e-04
1.002001e+03, 8.826971e-05
1.003003e+03, 1.310099e-04
1.004006e+03, 1.473495e-04
1.005010e+03, 1.699546e-04
1.006015e+03, 6.849382e-05
1.007021e+03, 1.785415e-04
1.008028e+03, 1.243479e-04
1.009036e+03, 1.467245e-04
1.010045e+03, 1.438983e-04
1.011055e+03, 1.736187e-04
1.012066e+03, 1.723912e-04
1.013078e+03, 1.338222e-04
1.014091e+03, 1.028948e-04
1.015105e+03, 4.170165e-04
1.016121e+03, 3.313878e-04
1.017137e+03, 1.415893e-04
1.018154e+03, 1.644983e-04
1.019172e+03, 3.895571e-04
1.020191e+03, 4.704265e-04
1.021211e+03, 2.712379e-04
1.022233e+03, 1.798500e-04
1.023255e+03, 1.747933e-04
1.024278e+03, 9.950737e-05
1.025302e+03, 6.843647e-06
1.026328e+03, 1.441836e-05
1.027354e+03, 1.558748e-04
1.028381e+03, 1.969401e-04
1.029410e+03, 3.039811e-04
1.030439e+03, 5.207162e-04
1.031470e+03, 4.889373e-04
1.032501e+03, 1.675660e-03
1.033533e+03, 5.921373e-04
1.034567e+03, 1.109693e-03
1.035602e+03, 7.589562e-04
1.036637e+03, 7.045173e-04
1.037674e+03, 2.863846e-03
1.038712e+03, 1.374943e-03
1.039750e+03, 1.233656e-03
1.040790e+03, 1.161580e-03
1.041831e+03, 1.978746e-03
1.042873e+03, 2.621728e-03
1.043915e+03, 1.986963e-03
1.044959e+03, 3.059336e-03
1.046004e+03, 1.776882e-03
1.047050e+03, 1.505983e-03
1.048097e+03, 1.931951e-03
1.049145e+03, 2.584075e-03
1.050195e+03, 1.144519e-03
1.051245e+03, 1.639063e-03
1.052296e+03, 1.349088e-03
1.053348e+03, 2.113765e-03
1.054402e+03, 2.961411e-03
1.055456e+03, 2.736699e-03
1.056512e+03, 2.075207e-03
1.057568e+03, 2.196101e-03
1.058626e+03, 1.792987e-03
1.059684e+03, 4.896147e-03
1.060744e+03, 9.245220e-03
1.061805e+03, 2.634019e-03
1.062867e+03, 6.018115e-03
1.063929e+03, 1.060782e-02
1.064993e+03, 1.808486e-03
1.066058e+03, 5.967695e-03
1.067124e+03, 4.884720e-03
1.068191e+03, 7.981795e-03
1.069260e+03, 8.505567e-03
1.070329e+03, 5.146557e-03
1.071399e+03, 5.193695e-03
1.072471e+03, 6.030050e-03
1.073543e+03, 9.019992e-03
1.074617e+03, 7.977039e-03
1.075691e+03, 2.005651e-02
1.076767e+03, 1.052550e-02
1.077844e+03, 4.604953e-03
1.078922e+03, 8.066126e-03
1.080001e+03, 1.750232e-02
1.081081e+03, 1.014458e-02
1.082162e+03, 2.404083e-02
1.083244e+03, 2.497965e-02
1.084327e+03, 2.235048e-02
1.085411e+03, 9.282272e-03
1.086497e+03, 1.722214e-02
1.087583e+03, 1.945376e-02
1.088671e+03, 2.098274e-02
1.089759e+03, 1.680305e-02
1.090849e+03, 3.074336e-02
1.091940e+03, 3.720137e-02
1.093032e+03, 3.556212e-02
1.094125e+03, 6.975635e-03
1.095219e+03, 3.252753e-02
1.096314e+03, 3.707477e-02
1.097411e+03, 3.049627e-02
1.098508e+03, 3.536991e-02
1.099607e+03, 1.577459e-02
1.100706e+03, 1.557053e-02
1.101807e+03, 2.021964e-02
1.102909e+03, 1.106723e-01
1.104012e+03, 4.806193e-02
1.105116e+03, 5.986941e-02
1.106221e+03, 6.942671e-02
1.107327e+03, 8.515756e-02
1.108434e+03, 2.786428e-02
1.109543e+03, 4.532522e-02
1.110652e+03, 6.745477e-02
1.111763e+03, 1.084225e-01
1.112875e+03, 1.094116e-01
1.113988e+03, 4.467663e-02
1.115102e+03, 4.963941e-02
1.116217e+03, 3.087636e-02
1.117333e+03, 1.184161e-01
1.118450e+03, 1.020777e-01
1.119569e+03, 6.835180e-02
1.120688e+03, 6.775404e-02
1.121809e+03, 1.708047e-01
1.122931e+03, 1.685870e-01
1.124054e+03, 9.696888e-02
1.125178e+03, 9.019115e-02
1.126303e+03, 3.794946e-01
1.127429e+03, 2.251014e-01
1.128557e+03, 2.118533e-01
1.129685e+03, 1.718423e-01
1.130815e+03, 2.224970e-01
1.131946e+03, 2.039636e-01
1.133078e+03, 2.688947e-01
1.134211e+03, 1.733659e-01
1.135345e+03, 1.314648e-01
1.136480e+03, 2.596975e-01
1.137617e+03, 2.832527e-01
1.138754e+03, 2.633863e-01
1.139893e+03, 1.489091e-01
1.141033e+03, 3.384121e-01
1.142174e+03, 3.972703e-01
1.143316e+03, 2.507119e-01
1.144460e+03, 2.091308e-01
1.145604e+03, 2.623589e-01
1.146750e+03, 2.752468e-01
1.147896e+03, 3.543861e-01
1.149044e+03, 2.287622e-01
1.150193e+03, 2.763074e-01
1.151344e+03, 2.452631e-01
1.152495e+03, 3.577846e-01
1.153647e+03, 3.522063e-01
1.154801e+03, 2.886985e-01
1.155956e+03, 3.305661e-01
1.157112e+03, 4.863273e-01
1.158269e+03, 3.923895e-01
1.159427e+03, 2.288205e-01
1.160587e+03, 5.109380e-01
1.161747e+03, 1.490974e-01
1.162909e+03, 3.550672e-01
1.164072e+03, 2.844144e-01
1.165236e+03, 2.280855e-01
1.166401e+03, 1.298319e-01
1.167568e+03, 2.537693e-01
1.168735e+03, 4.148546e-01
1.169904e+03, 2.271579e-01
1.171074e+03, 2.729571e-01
1.172245e+03, 2.673753e-01
1.173417e+03, 4.059491e-01
1.174590e+03, 3.846331e-01
1.175765e+03, 2.807732e-01
1.176941e+03, 5.543541e-01
1.178118e+03, 6.440028e-01
1.179296e+03, 5.214037e-01
1.180475e+03, 4.385548e-01
1.181656e+03, 5.427095e-01
1.182837e+03, 4.996537e-01
1.184020e+03, 5.588732e-01
1.185204e+03, 4.222734e-01
1.186389e+03, 4.438676e-01
1.187576e+03, 5.734593e-01
1.188763e+03, 5.953700e-01
1.189952e+03, 6.633249e-01
1.191142e+03, 5.638170e-01
1.192333e+03, 4.367655e-01
1.193526e+03, 4.573936e-01
1.194719e+03, 1.035219e+00
1.195914e+03, 1.900270e+00
1.197110e+03, 4.567195e+00
1.198307e+03, 1.894270e+00
1.199505e+03, 2.657392e+00
1.200705e+03, 2.682579e+00
1.201905e+03, 1.806922e+00
1.203107e+03, 2.487530e+00
1.204310e+03, 1.871705e+00
1.205515e+03, 1.678314e+00
1.206720e+03, 1.897332e+00
1.207927e+03, 1.257729e+00
1.209135e+03, 1.064709e+00
1.210344e+03, 3.976098e-01
1.211554e+03, 3.795735e-01
1.212766e+03, 1.886417e-01
1.213979e+03, 6.571528e-02
1.215193e+03, 9.739241e-03
1.216408e+03, 1.621657e-02
1.217624e+03, 1.002619e-01
1.218842e+03, 2.563450e-01
1.220061e+03, 5.363304e-01
1.221281e+03, 1.088798e+00
1.222502e+03, 1.646165e+00
1.223724e+03, 2.738463e+00
1.224948e+03, 2.752332e+00
1.226173e+03, 5.711608e+00
1.227399e+03, 3.828032e+00
1.228627e+03, 6.286037e+00
1.229855e+03, 5.132182e+00
1.231085e+03, 9.365459e+00
1.232316e+03, 1.363064e+01
1.233549e+03, 1.203611e+01
1.234782e+03, 1.543491e+01
1.236017e+03, 1.119080e+01
1.237253e+03, 1.254398e+01
1.238490e+03, 1.825222e+01
1.239729e+03, 2.552117e+01
1.240968e+03, 1.576626e+01
1.242209e+03, 1.700379e+01
1.243452e+03, 2.365745e+01
1.244695e+03, 2.595252e+01
1.245940e+03, 1.635018e+01
1.247186e+03, 2.636922e+01
1.248433e+03, 3.219410e+01
1.249681e+03, 3.306989e+01
1.250931e+03, 2.823567e+01
1.252182e+03, 3.431012e+01
1.253434e+03, 3.401623e+01
1.254688e+03, 4.579294e+01
1.255942e+03, 2.732055e+01
1.257198e+03, 2.394009e+01
1.258455e+03, 2.443892e+01
1.259714e+03, 4.036640e+01
1.260974e+03, 3.326224e+01
1.262235e+03, 3.955357e+01
1.263497e+03, 3.678436e+01
1.264760e+03, 4.249212e+01
1.266025e+03, 4.173378e+01
1.267291e+03, 4.217729e+01
1.268558e+03, 3.292425e+01
1.269827e+03, 6.322313e+01
1.271097e+03, 4.638234e+01
1.272368e+03, 4.745789e+01
1.273640e+03, 6.872827e+01
1.274914e+03, 4.419882e+01
1.276189e+03, 4.898205e+01
1.277465e+03, 5.753817e+01
1.278742e+03, 4.961364e+01
1.280021e+03, 4.247611e+01
1.281301e+03, 7.798144e+01
1.282582e+03, 4.913968e+01
1.283865e+03, 8.241770e+01
1.285149e+03, 9.232419e+01
1.286434e+03, 5.232127e+01
1.287720e+03, 8.118073e+01
1.289008e+03, 1.004895e+02
1.290297e+03, 9.855105e+01
1.291588e+03, 1.119515e+02
1.292879e+03, 7.631284e+01
1.294172e+03, 1.260471e+02
1.295466e+03, 1.280541e+02
1.296762e+03, 1.374249e+02
1.298058e+03, 1.248932e+02
1.299356e+03, 1.294306e+02
1.300656e+03, 1.768068e+02
1.301956e+03, 1.874301e+02
1.303258e+03, 2.312345e+02
1.304562e+03, 1.832559e+02
1.305866e+03, 2.045180e+02
1.307172e+03, 2.183050e+02
1.308479e+03, 2.547228e+02
1.309788e+03, 2.516925e+02
1.311098e+03, 1.882341e+02
1.312409e+03, 1.601214e+02
1.313721e+03, 1.834305e+02
1.315035e+03, 1.443656e+02
1.316350e+03, 1.756983e+02
1.317666e+03, 2.134080e+02
1.318984e+03, 1.751978e+02
1.320303e+03, 1.967263e+02
1.321623e+03, 2.020200e+02
1.322945e+03, 1.623685e+02
1.324268e+03, 1.765155e+02
1.325592e+03, 2.001812e+02
1.326918e+03, 1.898987e+02
1.328244e+03, 2.251278e+02
1.329573e+03, 2.424680e+02
1.330902e+03, 3.165062e+02
1.332233e+03, 3.025832e+02
1.333565e+03, 2.925938e+02
1.334899e+03, 3.220535e+02
1.336234e+03, 3.097839e+02
1.337570e+03, 3.356328e+02
1.338908e+03, 3.383774e+02
1.340247e+03, 3.635477e+02
1.341587e+03, 4.172882e+02
1.342928e+03, 2.983841e+02
1.344271e+03, 4.321365e+02
1.345616e+03, 3.051439e+02
1.346961e+03, 3.340082e+02
1.348308e+03, 4.450909e+02
1.349656e+03, 3.887981e+02
1.351006e+03, 4.426722e+02
1.352357e+03, 5.619823e+02
1.353709e+03, 6.159682e+02
1.355063e+03, 6.618575e+02
1.356418e+03, 5.613056e+02
1.357775e+03, 6.332338e+02
1.359132e+03, 6.690450e+02
1.360492e+03, 6.422477e+02
1.361852e+03, 6.503806e+02
1.363214e+03, 5.852867e+02
1.364577e+03, 7.105856e+02
1.365942e+03, 5.427939e+02
1.367308e+03, 6.455959e+02
1.368675e+03, 5.516003e+02
1.370044e+03, 6.476577e+02
1.371414e+03, 5.922289e+02
1.372785e+03, 6.664665e+02
1.374158e+03, 6.059673e+02
1.375532e+03, 7.653903e+02
1.376908e+03, 6.894951e+02
1.378284e+03, 8.996798e+02
1.379663e+03, 8.519068e+02
1.381042e+03, 9.916683e+02
1.382423e+03, 1.065187e+03
1.383806e+03, 1.069005e+03
1.385190e+03, 1.129604e+03
1.386575e+03, 1.303229e+03
1.387961e+03, 1.397329e+03
1.389349e+03, 1.585653e+03
1.390739e+03, 1.556806e+03
1.392130e+03, 1.797356e+03
1.393522e+03, 1.797683e+03
1.394915e+03, 2.052765e+03
1.396310e+03, 2.216796e+03
1.397706e+03, 2.445541e+03
1.399104e+03, 2.612940e+03
1.400503e+03, 2.939850e+03
1.401904e+03, 3.208718e+03
1.403306e+03, 3.086599e+03
1.404709e+03, 3.483796e+03
1.406114e+03, 3.762598e+03
1.407520e+03, 4.453970e+03
1.408927e+03, 3.806310e+03
1.410336e+03, 3.731231e+03
1.411747e+03, 4.980044e+03
1.413158e+03, 4.010026e+03
1.414571e+03, 4.606368e+03
1.415986e+03, 4.385760e+03
1.417402e+03, 5.629012e+03
1.418819e+03, 5.024754e+03
1.420238e+03, 6.406469e+03
1.421658e+03, 5.811337e+03
1.423080e+03, 5.302204e+03
1.424503e+03, 5.520282e+03
1.425928e+03, 6.995071e+03
1.427354e+03, 6.069994e+03
1.428781e+03, 6.363874e+03
1.430210e+03, 6.896425e+03
1.431640e+03, 7.575133e+03
1.433072e+03, 6.613861e+03
1.434505e+03, 7.409520e+03
1.435939e+03, 8.019709e+03
1.437375e+03, 8.074277e+03
1.438813e+03, 9.023604e+03
1.440251e+03, 8.688846e+03
1.441692e+03, 8.961926e+03
1.443133e+03, 9.360937e+03
1.444576e+03, 9.966391e+03
1.446021e+03, 9.850914e+03
1.447467e+03, 8.875348e+03
1.448914e+03, 1.153129e+04
1.450363e+03, 1.224710e+04
1.451814e+03, 1.109781e+04
1.453266e+03, 1.206842e+04
1.454719e+03, 1.231931e+04
1.456174e+03, 1.309986e+04
1.457630e+03, 1.211573e+04
1.459087e+03, 1.241972e+04
1.460546e+03, 1.205560e+04
1.462007e+03, 1.451571e+04
1.463469e+03, 1.501106e+04
1.464932e+03, 1.496464e+04
1.466397e+03, 1.796994e+04
1.467864e+03, 1.685643e+04
1.469332e+03, 1.696829e+04
1.470801e+03, 1.918639e+04
1.472272e+03, 1.640925e+04
1.473744e+03, 1.612766e+04
1.475218e+03, 2.010843e+04
1.476693e+03, 2.066086e+04
1.478170e+03, 1.933303e+04
1.479648e+03, 2.048379e+04
1.481128e+03, 2.201153e+04
1.482609e+03, 2.308557e+04
1.484091e+03, 2.355196e+04
1.485575e+03, 2.629812e+04
1.487061e+03, 2.273522e+04
1.488548e+03, 2.427010e+04
1.490037e+03, 2.780037e+04
1.491527e+03, 2.734582e+04
1.493018e+03, 2.574715e+04
1.494511e+03, 2.587317e+04
1.496006e+03, 3.167645e+04
1.497502e+03, 3.076907e+04
1.498999e+03, 3.303160e+04
1.500498e+03, 3.459434e+04
1.501999e+03, 3.425065e+04
1.503501e+03, 3.509940e+04
1.505004e+03, 3.542649e+04
1.506509e+03, 4.040657e+04
1.508016e+03, 4.035528e+04
1.509524e+03, 4.136091e+04
1.511033e+03, 4.171391e+04
1.512544e+03, 4.100515e+04
1.514057e+03, 4.005534e+04
1.515571e+03, 3.872850e+04
1.517086e+03, 3.830729e+04
1.518603e+03, 3.844539e+04
1.520122e+03, 3.953392e+04
1.521642e+03, 4.146355e+04
1.523164e+03, 4.315194e+04
1.524687e+03, 4.221964e+04
1.526212e+03, 4.294502e+04
1.527738e+03, 4.424145e+04
1.529266e+03, 4.063691e+04
1.530795e+03, 4.363043e+04
1.532326e+03, 3.838149e+04
1.533858e+03, 3.740586e+04
1.535392e+03, 3.768356e+04
1.536927e+03, 3.945435e+04
1.538464e+03, 3.914996e+04
1.540003e+03, 3.895563e+04
1.541543e+03, 3.751396e+04
1.543084e+03, 4.517706e+04
1.544627e+03, 3.950513e+04
1.546172e+03, 4.037400e+04
1.547718e+03, 4.138529e+04
1.549266e+03, 3.717680e+04
1.550815e+03, 3.723127e+04
1.552366e+03, 3.474252e+04
1.553918e+03, 4.340790e+04
1.555472e+03, 4.233741e+04
1.557028e+03, 5.384262e+04
1.558585e+03, 5.511423e+04
1.560143e+03, 5.993771e+04
1.561703e+03, 6.490175e+04
1.563265e+03, 6.621733e+04
1.564828e+03, 7.519580e+04
1.566393e+03, 8.250728e+04
1.567960e+03, 7.858080e+04
1.569528e+03, 8.596428e+04
1.571097e+03, 8.841852e+04
1.572668e+03, 9.211146e+04
1.574241e+03, 8.875691e+04
1.575815e+03, 9.429924e+04
1.577391e+03, 1.024344e+05
1.578968e+03, 1.083317e+05
1.580547e+03, 8.758377e+04
1.582128e+03, 7.978210e+04
1.583710e+03, 9.572514e+04
1.585294e+03, 9.510807e+04
1.586879e+03, 9.198692e+04
1.588466e+03, 1.052096e+05
1.590054e+03, 1.024757e+05
1.591644e+03, 1.062595e+05
1.593236e+03, 8.336090e+04
1.594829e+03, 9.060329e+04
1.596424e+03, 9.496591e+04
1.598020e+03, 9.592173e+04
1.599618e+03, 9.922639e+04
1.601218e+03, 9.477229e+04
1.602819e+03, 9.643299e+04
1.604422e+03, 9.014190e+04
1.606027e+03, 8.912178e+04
1.607633e+03, 1.046973e+05
1.609240e+03, 8.525669e+04
1.610849e+03, 1.002015e+05
1.612460e+03, 8.504566e+04
1.614073e+03, 1.023462e+05
1.615687e+03, 1.049795e+05
1.617303e+03, 9.350725e+04
1.618920e+03, 1.206593e+05
1.620539e+03, 9.256131e+04
1.622159e+03, 9.715100e+04
1.623781e+03, 1.209969e+05
1.625405e+03, 1.128388e+05
1.627031e+03, 1.241773e+05
1.628658e+03, 1.445912e+05
1.630286e+03, 1.646869e+05
1.631917e+03, 1.777744e+05
1.633549e+03, 1.655158e+05
1.635182e+03, 1.405181e+05
1.636817e+03, 2.053038e+05
1.638454e+03, 1.607584e+05
1.640093e+03, 1.291080e+05
1.641733e+03, 1.743882e+05
1.643374e+03, 2.174282e+05
1.645018e+03, 2.279541e+05
1.646663e+03, 2.170190e+05
1.648309e+03, 2.615565e+05
1.649958e+03, 2.259100e+05
1.651608e+03, 1.960019e+05
1.653259e+03, 2.701750e+05
1.654913e+03, 2.459646e+05
1.656567e+03, 2.228204e+05
1.658224e+03, 2.686845e+05
1.659882e+03, 2.382074e+05
1.661542e+03, 3.027430e+05
1.663204e+03, 3.020783e+05
1.664867e+03, 3.674004e+05
1.666532e+03, 2.818541e+05
1.668198e+03, 2.613755e+05
1.669866e+03, 2.111552e+05
1.671536e+03, 2.801916e+05
1.673208e+03, 3.106706e+05
1.674881e+03, 3.459131e+05
1.676556e+03, 3.760379e+05
1.678233e+03, 3.828005e+05
1.679911e+03, 4.016650e+05
1.681591e+03, 3.345798e+05
1.683272e+03, 3.847477e+05
1.684956e+03, 4.529975e+05
1.686640e+03, 4.122330e+05
1.688327e+03, 4.539208e+05
1.690015e+03, 4.473940e+05
1.691705e+03, 5.460608e+05
1.693397e+03, 4.350119e+05
1.695091e+03, 5.598514e+05
1.696786e+03, 7.438479e+05
1.698482e+03, 4.734228e+05
1.700181e+03, 4.429637e+05
1.701881e+03, 4.825012e+05
1.703583e+03, 4.530185e+05
1.705287e+03, 5.800012e+05
1.706992e+03, 7.205276e+05
1.708699e+03, 6.294201e+05
1.710408e+03, 7.454291e+05
1.712118e+03, 7.829031e+05
1.713830e+03, 8.508227e+05
1.715544e+03, 7.263528e+05
1.717259e+03, 5.077907e+05
1.718977e+03, 6.670907e+05
1.720696e+03, 6.864606e+05
1.722416e+03, 7.183551e+05
1.724139e+03, 8.350703e+05
1.725863e+03, 9.190684e+05
1.727589e+03, 1.142316e+06
1.729316e+03, 1.144036e+06
1.731046e+03, 1.107626e+06
1.732777e+03, 1.264800e+06
1.734510e+03, 7.458605e+05
1.736244e+03, 9.345344e+05
1.737980e+03, 9.277256e+05
1.739718e+03, 8.869963e+05
1.741458e+03, 9.750785e+05
1.743199e+03, 1.109358e+06
1.744943e+03, 1.389819e+06
1.746688e+03, 1.449165e+06
1.748434e+03, 1.307386e+06
1.750183e+03, 1.237551e+06
1.751933e+03, 1.183385e+06
1.753685e+03, 9.927775e+05
1.755439e+03, 1.413551e+06
1.757194e+03, 1.338231e+06
1.758951e+03, 1.331749e+06
1.760710e+03, 1.416962e+06
1.762471e+03, 1.348383e+06
1.764233e+03, 1.499965e+06
1.765998e+03, 1.563639e+06
1.767764e+03, 2.237610e+06
1.769531e+03, 1.910307e+06
1.771301e+03, 1.447014e+06
1.773072e+03, 1.231335e+06
1.774845e+03, 1.604527e+06
1.776620e+03, 1.662389e+06
1.778397e+03, 1.906970e+06
1.780175e+03, 1.964881e+06
1.781955e+03, 2.395203e+06
1.783737e+03, 2.588378e+06
1.785521e+03, 2.526520e+06
1.787306e+03, 2.869504e+06
1.789094e+03, 2.483354e+06
1.790883e+03, 2.206145e+06
1.792674e+03, 1.838465e+06
1.794466e+03, 2.414243e+06
1.796261e+03, 2.826135e+06
1.798057e+03, 2.593792e+06
1.799855e+03, 2.737862e+06
1.801655e+03, 3.112672e+06
1.803457e+03, 3.455617e+06
1.805260e+03, 3.182625e+06
1.807065e+03, 3.189081e+06
1.808872e+03, 4.001356e+06
1.810681e+03, 3.294640e+06
1.812492e+03, 2.111766e+06
1.814304e+03, 2.658141e+06
1.816119e+03, 3.055463e+06
1.817935e+03, 3.514227e+06
1.819753e+03, 2.866310e+06
1.821573e+03, 3.295911e+06
1.823394e+03, 4.371218e+06
1.825218e+03, 4.243281e+06
1.827043e+03, 4.148479e+06
1.828870e+03, 4.521110e+06
1.830699e+03, 4.710967e+06
1.832529e+03, 3.227352e+06
1.834362e+03, 3.114407e+06
1.836196e+03, 3.510645e+06
1.838032e+03, 4.245731e+06
1.839871e+03, 3.989659e+06
1.841710e+03, 4.292559e+06
1.843552e+03, 5.269712e+06
1.845396e+03, 5.478650e+06
1.847241e+03, 5.991834e+06
1.849088e+03, 6.113062e+06
1.850937e+03, 5.230775e+06
1.852788e+03, 4.835160e+06
1.854641e+03, 3.769919e+06
1.856496e+03, 3.840208e+06
1.858352e+03, 4.849045e+06
1.860211e+03, 5.768679e+06
1.862071e+03, 5.918621e+06
1.863933e+03, 5.443978e+06
1.865797e+03, 6.108931e+06
1.867663e+03, 7.488688e+06
1.869530e+03, 7.230344e+06
1.871400e+03, 7.172518e+06
1.873271e+03, 6.305761e+06
1.875144e+03, 6.103343e+06
1.877020e+03, 6.477659e+06
1.878897e+03, 6.108453e+06
1.880776e+03, 6.638975e+06
1.882656e+03, 7.196662e+06
1.884539e+03, 8.566358e+06
1.886424e+03, 8.283113e+06
1.888310e+03, 8.924646e+06
1.890198e+03, 9.221130e+06
1.892088e+03, 1.106047e+07
1.893981e+03, 1.075211e+07
1.895875e+03, 9.877375e+06
1.897770e+03, 9.472566e+06
1.899668e+03, 8.067037e+06
1.901568e+03, 9.321649e+06
1.903469e+03, 1.166418e+07
1.905373e+03, 1.124902e+07
1.907278e+03, 1.208441e+07
1.909186e+03, 1.272729e+07
1.911095e+03, 1.390326e+07
1.913006e+03, 1.403948e+07
1.914919e+03, 1.427336e+07
1.916834e+03, 1.556453e+07
1.918751e+03, 1.346416e+07
1.920669e+03, 1.352249e+07
1.922590e+03, 1.301818e+07
1.924513e+03, 1.359256e+07
1.926437e+03, 1.536855e+07
1.928364e+03, 1.464709e+07
1.930292e+03, 1.637274e+07
1.932222e+03, 1.809750e+07
1.934154e+03, 1.707588e+07
1.936089e+03, 1.614191e+07
1.938025e+03, 1.859313e+07
1.939963e+03, 1.752772e+07
1.941903e+03, 2.127980e+07
1.943845e+03, 1.714595e+07
1.945788e+03, 1.647156e+07
1.947734e+03, 1.957714e+07
1.949682e+03, 1.853227e+07
1.951632e+03, 1.867739e+07
1.953583e+03, 2.430837e+07
1.955537e+03, 2.171211e+07
1.957492e+03, 2.428470e+07
1.959450e+03, 2.222888e+07
1.961409e+03, 2.320506e+07
1.963371e+03, 2.477115e+07
1.965334e+03, 2.583309e+07
1.967299e+03, 2.559173e+07
1.969267e+03, 2.383403e+07
1.971236e+03, 2.826050e+07
1.973207e+03, 2.579107e+07
1.975180e+03, 2.925588e+07
1.977156e+03, 2.897714e+07
1.979133e+03, 3.077156e+07
1.981112e+03, 3.187712e+07
1.983093e+03, 3.413523e+07
1.985076e+03, 3.642194e+07
1.987061e+03, 3.474059e+07
1.989048e+03, 3.474805e+07
1.991037e+03, 3.048336e+07
1.993028e+03, 3.317041e+07
1.995021e+03, 3.129144e+07
1.997016e+03, 3.295591e+07
1.999013e+03, 3.514908e+07
2.001012e+03, 3.550138e+07
2.003013e+03, 3.949788e+07
2.005016e+03, 3.836521e+07
2.007021e+03, 3.733648e+07
2.009028e+03, 4.231751e+07
2.011037e+03, 4.427213e+07
2.013048e+03, 4.749725e+07
2.015062e+03, 4.651843e+07
2.017077e+03, 4.306241e+07
2.019094e+03, 4.491209e+07
2.021113e+03, 4.477128e+07
2.023134e+03, 4.456525e+07
2.025157e+03, 4.832108e+07
2.027182e+03, 4.495467e+07
2.029209e+03, 5.341402e+07
2.031239e+03, 5.329608e+07
2.033270e+03, 5.575833e+07
2.035303e+03, 5.165270e+07
2.037338e+03, 5.655004e+07
2.039376e+03, 5.834313e+07
2.041415e+03, 5.696571e+07
2.043457e+03, 5.796193e+07
2.045500e+03, 5.670311e+07
2.047545e+03, 5.635016e+07
2.049593e+03, 6.192290e+07
2.051643e+03, 6.232779e+07
2.053694e+03, 6.369715e+07
2.055748e+03, 6.156670e+07
2.057804e+03, 7.132934e+07
2.059861e+03, 6.431280e+07
2.061921e+03, 6.676917e+07
2.063983e+03, 6.705862e+07
2.066047e+03, 6.293759e+07
2.068113e+03, 7.416995e+07
2.070181e+03, 6.760614e+07
2.072252e+03, 1.133076e+08
2.074324e+03, 1.042285e+08
2.076398e+03, 1.033452e+08
2.078475e+03, 8.682883e+07
2.080553e+03, 1.258778e+08
2.082634e+03, 1.304230e+08
2.084716e+03, 1.238909e+08
2.086801e+03, 1.292981e+08
2.088888e+03, 1.541919e+08
2.090977e+03, 1.720147e+08
2.093068e+03, 1.638043e+08
2.095161e+03, 1.181544e+08
2.097256e+03, 1.575740e+08
2.099353e+03, 1.674121e+08
2.101452e+03, 1.564072e+08
2.103554e+03, 1.605012e+08
2.105657e+03, 1.519264e+08
2.107763e+03, 1.582729e+08
2.109871e+03, 1.557765e+08
2.111981e+03, 1.967129e+08
2.114093e+03, 1.732373e+08
2.116207e+03, 1.518288e+08
2.118323e+03, 1.653161e+08
2.120441e+03, 1.976518e+08
2.122562e+03, 2.342158e+08
2.124684e+03, 1.915581e+08
2.126809e+03, 1.730512e+08
2.128936e+03, 1.783048e+08
2.131065e+03, 2.124302e+08
2.133196e+03, 2.095662e+08
2.135329e+03, 2.063882e+08
2.137464e+03, 2.213140e+08
2.139602e+03, 2.168551e+08
2.141741e+03, 1.549622e+08
2.143883e+03, 2.252242e+08
2.146027e+03, 2.428279e+08
2.148173e+03, 1.546579e+08
2.150321e+03, 1.767606e+08
2.152472e+03, 2.203314e+08
2.154624e+03, 2.442760e+08
2.156779e+03, 2.677131e+08
2.158935e+03, 2.321186e+08
2.161094e+03, 2.286484e+08
2.163255e+03, 2.037785e+08
2.165419e+03, 2.208590e+08
2.167584e+03, 2.284529e+08
2.169752e+03, 2.149765e+08
2.171921e+03, 2.715071e+08
2.174093e+03, 2.712669e+08
2.176268e+03, 3.773643e+08
2.178444e+03, 1.626678e+08
2.180622e+03, 2.335777e+08
2.182803e+03, 2.297737e+08
2.184986e+03, 2.489086e+08
2.187171e+03, 2.838214e+08
2.189358e+03, 3.375792e+08
2.191547e+03, 3.427155e+08
2.193739e+03, 3.464041e+08
2.195932e+03, 3.913402e+08
2.198128e+03, 3.606377e+08
2.200327e+03, 2.426502e+08
2.202527e+03, 3.672631e+08
2.204729e+03, 3.082772e+08
2.206934e+03, 4.680845e+08
2.209141e+03, 3.889331e+08
2.211350e+03, 3.829302e+08
2.213562e+03, 5.017139e+08
2.215775e+03, 3.659199e+08
2.217991e+03, 3.303435e+08
2.220209e+03, 2.814347e+08
2.222429e+03, 3.099609e+08
2.224651e+03, 4.386488e+08
2.226876e+03, 3.444509e+08
2.229103e+03, 5.382816e+08
2.231332e+03, 4.522439e+08
2.233563e+03, 6.421871e+08
2.235797e+03, 7.846852e+08
2.238033e+03, 3.922421e+08
2.240271e+03, 5.214375e+08
2.242511e+03, 5.502696e+08
2.244754e+03, 5.993355e+08
2.246998e+03, 7.035257e+08
2.249245e+03, 6.793247e+08
2.251495e+03, 8.294168e+08
2.253746e+03, 8.952878e+08
2.256000e+03, 7.493024e+08
2.258256e+03, 3.640018e+08
2.260514e+03, 3.193499e+08
2.262775e+03, 4.380295e+08
2.265037e+03, 4.959864e+08
2.267302e+03, 5.669346e+08
2.269570e+03, 5.756463e+08
2.271839e+03, 6.983596e+08
2.274111e+03, 9.493380e+08
2.276385e+03, 7.633349e+08
2.278662e+03, 8.350497e+08
2.280940e+03, 7.645390e+08
2.283221e+03, 8.083162e+08
2.285504e+03, 8.163901e+08
2.287790e+03, 7.924247e+08
2.290078e+03, 8.743837e+08
2.292368e+03, 1.141217e+09
2.294660e+03, 1.062126e+09
2.296955e+03, 1.246677e+09
2.299252e+03, 8.803163e+08
2.301551e+03, 4.567400e+08
2.303853e+03, 5.687909e+08
2.306156e+03, 7.193280e+08
2.308463e+03, 9.321864e+08
2.310771e+03, 8.303009e+08
2.313082e+03, 1.078428e+09
2.315395e+03, 1.432520e+09
2.317710e+03, 1.792769e+09
2.320028e+03, 1.289901e+09
2.322348e+03, 1.026779e+09
2.324670e+03, 1.175515e+09
2.326995e+03, 1.165029e+09
2.329322e+03, 1.284446e+09
2.331651e+03, 1.778424e+09
2.333983e+03, 1.739583e+09
2.336317e+03, 1.599452e+09
2.338653e+03, 1.705791e+09
2.340992e+03, 2.117968e+09
2.343333e+03, 1.405953e+09
2.345676e+03, 7.513191e+08
2.348022e+03, 8.018163e+08
2.350370e+03, 1.068869e+09
2.352720e+03, 1.033294e+09
2.355073e+03, 1.096664e+09
2.357428e+03, 1.347768e+09
2.359786e+03, 1.637506e+09
2.362145e+03, 1.639937e+09
2.364508e+03, 1.933820e+09
2.366872e+03, 8.530920e+08
2.369239e+03, 1.209252e+09
2.371608e+03, 1.416839e+09
2.373980e+03, 1.231622e+09
2.376354e+03, 1.727053e+09
2.378730e+03, 1.916628e+09
2.381109e+03, 2.499694e+09
2.383490e+03, 2.414357e+09
2.385873e+03, 2.127882e+09
2.388259e+03, 2.046240e+09
2.390648e+03, 1.821766e+09
2.393038e+03, 1.838127e+09
2.395431e+03, 2.245770e+09
2.397827e+03, 2.610244e+09
2.400225e+03, 2.776528e+09
2.402625e+03, 3.388211e+09
2.405027e+03, 4.216842e+09
2.407432e+03, 3.658780e+09
2.409840e+03, 4.147446e+09
2.412250e+03, 3.017171e+09
2.414662e+03, 1.622085e+09
2.417077e+03, 1.987243e+09
2.419494e+03, 2.049590e+09
2.421913e+03, 2.319131e+09
2.424335e+03, 2.578815e+09
2.426759e+03, 3.236053e+09
2.429186e+03, 5.358240e+09
2.431615e+03, 4.774899e+09
2.434047e+03, 3.514271e+09
2.436481e+03, 3.591084e+09
2.438918e+03, 4.361793e+09
2.441356e+03, 4.297064e+09
2.443798e+03, 4.431893e+09
2.446242e+03, 5.180886e+09
2.448688e+03, 6.521433e+09
2.451137e+03, 6.023177e+09
2.453588e+03, 6.574230e+09
2.456041e+03, 8.010477e+09
2.458497e+03, 4.469007e+09
2.460956e+03, 3.354263e+09
2.463417e+03, 3.127385e+09
2.465880e+03, 4.664254e+09
2.468346e+03, 6.107841e+09
2.470814e+03, 5.656066e+09
2.473285e+03, 4.654099e+09
2.475758e+03, 7.422858e+09
2.478234e+03, 7.569430e+09
2.480712e+03, 5.121780e+09
2.483193e+03, 3.292164e+09
2.485676e+03, 3.757255e+09
2.488162e+03, 2.181117e+09
2.490650e+03, 2.349563e+09
2.493141e+03, 3.769896e+09
2.495634e+03, 4.626642e+09
2.498130e+03, 5.533748e+09
2.500628e+03, 5.345227e+09
2.503128e+03, 6.659392e+09
2.505632e+03, 6.833009e+09
2.508137e+03, 6.172719e+09
2.510645e+03, 4.026579e+09
2.513156e+03, 5.286605e+09
2.515669e+03, 5.471519e+09
2.518185e+03, 5.442703e+09
2.520703e+03, 6.533035e+09
2.523224e+03, 4.776698e+09
2.525747e+03, 7.818500e+09
2.528273e+03, 6.071065e+09
2.530801e+03, 6.979472e+09
2.533332e+03, 1.102519e+10
2.535865e+03, 1.086401e+10
2.538401e+03, 1.476664e+10
2.540939e+03, 1.168854e+10
2.543480e+03, 1.344266e+10
2.546024e+03, 1.013995e+10
2.548570e+03, 1.738071e+10
2.551118e+03, 1.388940e+10
2.553669e+03, 2.019345e+10
2.556223e+03, 1.496832e+10
2.558779e+03, 1.204922e+10
2.561338e+03, 1.335351e+10
2.563899e+03, 8.880207e+09
2.566463e+03, 7.545986e+09
2.569030e+03, 1.043542e+10
2.571599e+03, 1.342959e+10
2.574170e+03, 1.397248e+10
2.576745e+03, 1.163833e+10
2.579321e+03, 1.384946e+10
2.581901e+03, 1.253841e+10
2.584483e+03, 1.254668e+10
2.587067e+03, 1.118611e+10
2.589654e+03, 8.680863e+09
2.592244e+03, 1.134487e+10
2.594836e+03, 1.272142e+10
2.597431e+03, 1.934874e+10
2.600028e+03, 1.495389e+10
2.602628e+03, 1.930312e+10
2.605231e+03, 2.269578e+10
2.607836e+03, 1.633682e+10
2.610444e+03, 1.851798e+10
2.613054e+03, 1.532188e+10
2.615667e+03, 1.807324e+10
2.618283e+03, 1.939183e+10
2.620901e+03, 2.271489e+10
2.623522e+03, 2.289841e+10
2.626146e+03, 3.047390e+10
2.628772e+03, 2.813352e+10
2.631401e+03, 3.409468e+10
2.634032e+03, 3.578372e+10
2.636666e+03, 4.012781e+10
2.639303e+03, 5.522336e+10
2.641942e+03, 3.907635e+10
2.644584e+03, 3.013707e+10
2.647229e+03, 2.266867e+10
2.649876e+03, 3.309433e+10
2.652526e+03, 3.053111e+10
2.655178e+03, 4.971458e+10
2.657834e+03, 4.475636e+10
2.660491e+03, 3.527710e+10
2.663152e+03, 4.310977e+10
2.665815e+03, 3.300747e+10
2.668481e+03, 3.210000e+10
2.671149e+03, 2.426907e+10
2.673820e+03, 3.588793e+10
2.676494e+03, 4.347768e+10
2.679171e+03, 3.924997e+10
2.681850e+03, 3.856009e+10
2.684532e+03, 4.828983e+10
2.687216e+03, 4.826829e+10
2.689904e+03, 3.486516e+10
2.692593e+03, 3.210236e+10
2.695286e+03, 2.871069e+10
2.697981e+03, 3.232404e+10
2.700679e+03, 4.498296e+10
2.703380e+03, 4.532322e+10
2.706083e+03, 6.177742e+10
2.708789e+03, 5.555985e+10
2.711498e+03, 5.593819e+10
2.714210e+03, 4.757956e+10
2.716924e+03, 4.290677e+10
2.719641e+03, 2.174188e+10
2.722360e+03, 2.616672e+10
2.725083e+03, 3.397784e+10
2.727808e+03, 4.695441e+10
2.730536e+03, 4.715276e+10
2.733266e+03, 4.165069e+10
2.736000e+03, 3.792330e+10
2.738736e+03, 4.119251e+10
2.741474e+03, 5.400542e+10
2.744216e+03, 3.164392e+10
2.746960e+03, 6.215555e+10
2.749707e+03, 4.908228e+10
2.752457e+03, 6.034241e+10
2.755209e+03, 5.477927e+10
2.757964e+03, 4.751448e+10
2.760722e+03, 7.032976e+10
2.763483e+03, 6.754283e+10
2.766246e+03, 1.041052e+11
2.769013e+03, 7.481223e+10
2.771782e+03, 8.722159e+10
2.774554e+03, 9.758435e+10
2.777328e+03, 1.026783e+11
2.780105e+03, 5.759867e+10
2.782886e+03, 6.146695e+10
2.785668e+03, 9.031683e+10
2.788454e+03, 7.076530e+10
2.791243e+03, 1.092388e+11
2.794034e+03, 1.074352e+11
2.796828e+03, 7.648614e+10
2.799625e+03, 7.312950e+10
2.802424e+03, 7.525979e+10
2.805227e+03, 1.124290e+11
2.808032e+03, 7.695817e+10
2.810840e+03, 1.115288e+11
2.813651e+03, 1.051763e+11
2.816464e+03, 1.406574e+11
2.819281e+03, 1.281481e+11
2.822100e+03, 9.631551e+10
2.824922e+03, 1.094524e+11
2.827747e+03, 9.193111e+10
2.830575e+03, 1.126553e+11
2.833406e+03, 8.787791e+10
2.836239e+03, 8.410509e+10
2.839075e+03, 8.820530e+10
2.841914e+03, 8.393022e+10
2.844756e+03, 6.636115e+10
2.847601e+03, 5.286763e+10
2.850448e+03, 3.702397e+10
2.853299e+03, 1.707556e+10
2.856152e+03, 4.634403e+10
2.859008e+03, 6.528785e+10
2.861867e+03, 8.506495e+10
2.864729e+03, 9.391597e+10
2.867594e+03, 1.098293e+11
2.870462e+03, 1.228041e+11
2.873332e+03, 1.119374e+11
2.876205e+03, 1.159114e+11
2.879082e+03, 1.406249e+11
2.881961e+03, 1.450659e+11
2.884843e+03, 2.068517e+11
2.887727e+03, 2.304675e+11
2.890615e+03, 2.518852e+11
2.893506e+03, 2.443226e+11
2.896399e+03, 2.258800e+11
2.899296e+03, 2.332029e+11
2.902195e+03, 2.155717e+11
2.905097e+03, 2.791989e+11
2.908002e+03, 3.061878e+11
2.910910e+03, 2.644966e+11
2.913821e+03, 2.498359e+11
2.916735e+03, 3.855448e+11
2.919652e+03, 3.355630e+11
2.922571e+03, 3.568557e+11
2.925494e+03, 3.343119e+11
2.928420e+03, 1.779966e+11
2.931348e+03, 2.493447e+11
2.934279e+03, 3.181300e+11
2.937214e+03, 1.558495e+11
2.940151e+03, 2.977183e+11
2.943091e+03, 1.833631e+11
2.946034e+03, 2.499384e+11
2.948980e+03, 1.584264e+11
2.951929e+03, 3.458426e+11
2.954881e+03, 1.766951e+11
2.957836e+03, 1.632515e+11
2.960794e+03, 3.713662e+11
2.963754e+03, 3.306416e+11
2.966718e+03, 1.178480e+11
2.969685e+03, 1.429499e+11
2.972655e+03, 1.481731e+11
2.975627e+03, 1.990591e+11
2.978603e+03, 3.535372e+11
2.981581e+03, 2.524821e+11
2.984563e+03, 1.408449e+11
2.987548e+03, 2.359405e+11
2.990535e+03, 3.915908e+11
2.993526e+03, 2.300802e+11
2.996519e+03, 1.672137e+11
2.999516e+03, 2.208871e+11
3.002515e+03, 1.208761e+11
3.005518e+03, 2.411668e+11
3.008523e+03, 1.376039e+11
3.011532e+03, 3.054761e+11
3.014543e+03, 3.216258e+11
3.017558e+03, 2.518319e+11
3.020575e+03, 9.719596e+10
3.023596e+03, 1.714702e+11
3.026620e+03, 1.706749e+11
3.029646e+03, 4.167707e+11
3.032676e+03, 4.857612e+11
3.035709e+03, 4.804910e+11
3.038744e+03, 2.339947e+11
3.041783e+03, 3.533131e+11
3.044825e+03, 4.201647e+11
3.047870e+03, 2.479256e+11
3.050918e+03, 3.281993e+11
3.053968e+03, 4.369937e+11
3.057022e+03, 3.554934e+11
3.060079e+03, 2.203982e+11
3.063140e+03, 5.854264e+11
3.066203e+03, 7.122659e+11
3.069269e+03, 7.085927e+11
3.072338e+03, 8.617819e+11
3.075410e+03, 6.170714e+11
3.078486e+03, 7.755491e+11
3.081564e+03, 4.166053e+11
3.084646e+03, 3.841736e+11
3.087731e+03, 7.643273e+11
3.090818e+03, 5.522470e+11
3.093909e+03, 2.302991e+11
3.097003e+03, 5.637680e+11
3.100100e+03, 5.383370e+11
3.103200e+03, 5.122613e+11
3.106303e+03, 1.052764e+12
3.109410e+03, 1.270922e+12
3.112519e+03, 1.186705e+12
3.115632e+03, 1.160874e+12
3.118747e+03, 1.093689e+12
3.121866e+03, 1.188659e+12
3.124988e+03, 1.451129e+12
3.128113e+03, 1.600893e+12
3.131241e+03, 1.078903e+12
3.134372e+03, 8.209160e+11
3.137507e+03, 1.446340e+12
3.140644e+03, 1.524984e+12
3.143785e+03, 1.544893e+12
3.146928e+03, 1.434298e+12
3.150075e+03, 1.739860e+12
3.153225e+03, 1.552084e+12
3.156379e+03, 1.826694e+12
3.159535e+03, 1.247946e+12
3.162695e+03, 1.266583e+12
3.165857e+03, 1.610196e+12
3.169023e+03, 1.809386e+12
3.172192e+03, 1.829287e+12
3.175364e+03, 2.334797e+12
3.178540e+03, 2.190041e+12
3.181718e+03, 1.393578e+12
3.184900e+03, 8.455081e+11
3.188085e+03, 1.481788e+12
3.191273e+03, 1.262761e+12
3.194464e+03, 1.108881e+12
3.197659e+03, 1.401775e+12
3.200856e+03, 1.149554e+12
3.204057e+03, 2.101045e+12
3.207261e+03, 2.235997e+12
3.210469e+03, 1.928540e+12
3.213679e+03, 1.416505e+12
3.216893e+03, 1.417939e+12
3.220110e+03, 1.927361e+12
3.223330e+03, 1.527703e+12
3.226553e+03, 1.252049e+12
3.229780e+03, 1.495395e+12
3.233009e+03, 1.729102e+12
3.236242e+03, 1.279100e+12
3.239479e+03, 2.265223e+12
3.242718e+03, 1.972683e+12
3.245961e+03, 1.840839e+12
3.249207e+03, 1.508757e+12
3.252456e+03, 2.307160e+12
3.255708e+03, 2.673765e+12
3.258964e+03, 2.997422e+12
3.262223e+03, 3.111533e+12
3.265485e+03, 2.341800e+12
3.268751e+03, 3.589422e+12
3.272020e+03, 2.248535e+12
3.275292e+03, 2.227911e+12
3.278567e+03, 3.324443e+12
3.281845e+03, 3.233561e+12
3.285127e+03, 2.713571e+12
3.288412e+03, 2.677880e+12
3.291701e+03, 3.571971e+12
3.294993e+03, 4.031327e+12
3.298288e+03, 3.743098e+12
3.301586e+03, 3.402528e+12
3.304887e+03, 2.395925e+12
3.308192e+03, 2.381992e+12
3.311500e+03, 3.124099e+12
3.314812e+03, 2.721993e+12
3.318127e+03, 2.750925e+12
3.321445e+03, 3.144559e+12
3.324766e+03, 2.704995e+12
3.328091e+03, 4.039692e+12
3.331419e+03, 3.321586e+12
3.334751e+03, 2.573100e+12
3.338085e+03, 2.826138e+12
3.341423e+03, 2.686695e+12
3.344765e+03, 2.815596e+12
3.348110e+03, 3.748600e+12
3.351458e+03, 1.662855e+12
3.354809e+03, 2.743755e+12
3.358164e+03, 2.900509e+12
3.361522e+03, 8.825527e+11
3.364884e+03, 3.205786e+12
3.368249e+03, 2.145156e+12
3.371617e+03, 9.714370e+11
3.374988e+03, 2.197565e+12
3.378363e+03, 2.687871e+12
3.381742e+03, 1.831024e+12
3.385124e+03, 2.890805e+12
3.388509e+03, 2.790790e+12
3.391897e+03, 2.151833e+12
3.395289e+03, 2.319390e+12
3.398684e+03, 3.415089e+12
3.402083e+03, 3.607667e+12
3.405485e+03, 2.814170e+12
3.408891e+03, 2.731946e+12
3.412300e+03, 2.509664e+12
3.415712e+03, 1.062429e+12
3.419128e+03, 2.894597e+12
3.422547e+03, 3.596894e+12
3.425969e+03, 2.518265e+12
3.429395e+03, 3.480074e+12
3.432825e+03, 2.483213e+12
3.436257e+03, 2.258769e+12
3.439694e+03, 1.213441e+12
3.443133e+03, 6.843779e+11
3.446576e+03, 1.151836e+12
3.450023e+03, 2.907591e+12
3.453473e+03, 1.957161e+12
3.456927e+03, 3.337945e+12
3.460383e+03, 2.232969e+12
3.463844e+03, 2.295396e+12
3.467308e+03, 1.543676e+12
3.470775e+03, 3.386982e+12
3.474246e+03, 2.409965e+12
3.477720e+03, 1.308272e+12
3.481198e+03, 4.230582e+12
3.484679e+03, 3.729167e+12
3.488164e+03, 3.692620e+12
3.491652e+03, 1.298718e+12
3.495143e+03, 2.258410e+12
3.498639e+03, 2.089369e+12
3.502137e+03, 3.457314e+12
3.505639e+03, 5.649675e+12
3.509145e+03, 4.949362e+12
3.512654e+03, 2.938449e+12
3.516167e+03, 1.945059e+12
3.519683e+03, 3.999819e+12
3.523203e+03, 2.179072e+12
3.526726e+03, 1.205101e+12
3.530253e+03, 3.749387e+12
3.533783e+03, 4.830915e+12
3.537317e+03, 5.620385e+12
3.540854e+03, 6.273648e+12
3.544395e+03, 6.653483e+12
3.547939e+03, 4.973065e+12
3.551487e+03, 5.731721e+12
3.555039e+03, 4.306732e+12
3.558594e+03, 3.660471e+12
3.562152e+03, 4.573216e+12
3.565714e+03, 2.319045e+12
3.569280e+03, 2.131889e+12
3.572849e+03, 2.206689e+12
3.576422e+03, 2.538317e+12
3.579999e+03, 1.088282e+12
3.583579e+03, 1.736427e+12
3.587162e+03, 1.531910e+12
3.590749e+03, 3.264777e+12
3.594340e+03, 1.528244e+12
3.597934e+03, 3.415142e+12
3.601532e+03, 4.888448e+12
3.605134e+03, 2.040526e+12
3.608739e+03, 1.854361e+12
3.612348e+03, 3.213954e+12
3.615960e+03, 4.854215e+12
3.619576e+03, 2.058929e+12
3.623196e+03, 4.026824e+12
3.626819e+03, 5.481863e+12
3.630446e+03, 3.842427e+12
3.634076e+03, 3.112112e+12
3.637710e+03, 3.956551e+12
3.641348e+03, 6.076320e+12
3.644989e+03, 2.764045e+12
3.648634e+03, 1.913007e+12
3.652283e+03, 4.119988e+12
3.655935e+03, 4.969444e+12
3.659591e+03, 7.746197e+12
3.663251e+03, 7.740208e+12
3.666914e+03, 8.510123e+12
3.670581e+03, 6.419263e+12
3.674251e+03, 6.960350e+12
3.677926e+03, 5.744952e+12
3.681604e+03, 3.031192e+12
3.685285e+03, 5.118982e+12
3.688971e+03, 3.925953e+12
3.692660e+03, 7.626002e+12
3.696352e+03, 7.203172e+12
3.700049e+03, 8.246152e+12
3.703749e+03, 4.896905e+12
3.707452e+03, 2.055732e+12
3.711160e+03, 3.762580e+12
3.714871e+03, 5.433608e+12
3.718586e+03, 2.358024e+12
3.722304e+03, 1.045567e+12
3.726027e+03, 3.410466e+12
3.729753e+03, 2.861707e+12
3.733482e+03, 2.141443e+12
3.737216e+03, 1.044397e+12
3.740953e+03, 2.603061e+12
3.744694e+03, 2.153365e+12
3.748439e+03, 1.217765e+12
3.752187e+03, 2.639340e+12
3.755939e+03, 4.880438e+12
3.759695e+03, 2.985346e+12
3.763455e+03, 4.129754e+12
3.767219e+03, 3.479582e+12
3.770986e+03, 7.258075e+12
3.774757e+03, 9.077063e+12
3.778532e+03, 8.440105e+12
3.782310e+03, 1.024188e+13
3.786092e+03, 6.973580e+12
3.789878e+03, 4.498936e+12
3.793668e+03, 7.181291e+12
3.797462e+03, 5.244341e+12
3.801259e+03, 4.903686e+12
3.805061e+03, 9.302804e+12
3.808866e+03, 7.176271e+12
3.812675e+03, 7.002540e+12
3.816487e+03, 4.026817e+12
3.820304e+03, 3.060359e+12
3.824124e+03, 2.539104e+12
3.827948e+03, 2.358930e+12
3.831776e+03, 4.028054e+12
3.835608e+03, 3.737644e+12
3.839444e+03, 3.987262e+12
3.843283e+03, 4.956895e+12
3.847126e+03, 7.417681e+12
3.850973e+03, 5.257334e+12
3.854824e+03, 5.293301e+12
3.858679e+03, 1.960991e+12
3.862538e+03, 2.772217e+12
3.866400e+03, 4.933401e+12
3.870267e+03, 7.795108e+12
3.874137e+03, 5.537482e+12
3.878011e+03, 3.633508e+12
3.881889e+03, 5.769223e+12
3.885771e+03, 3.747789e+12
3.889657e+03, 4.175175e+12
3.893547e+03, 7.734434e+12
3.897440e+03, 4.495808e+12
3.901338e+03, 4.542789e+12
3.905239e+03, 5.944780e+12
3.909144e+03, 6.693186e+12
3.913053e+03, 1.009465e+13
3.916966e+03, 8.602857e+12
3.920883e+03, 4.430604e+12
3.924804e+03, 4.246376e+12
3.928729e+03, 3.923773e+12
3.932658e+03, 2.345905e+12
3.936590e+03, 3.116317e+12
3.940527e+03, 6.270843e+12
3.944467e+03, 2.785052e+12
3.948412e+03, 4.911138e+12
3.952360e+03, 8.182740e+12
3.956313e+03, 7.421975e+12
3.960269e+03, 3.809885e+12
3.964229e+03, 2.892212e+12
3.968194e+03, 3.149147e+12
3.972162e+03, 5.018456e+12
3.976134e+03, 8.433948e+12
3.980110e+03, 1.161095e+13
3.984090e+03, 9.190278e+12
3.988074e+03, 1.338017e+13
3.992062e+03, 1.067953e+13
3.996054e+03, 1.401409e+13
4.000050e+03, 1.011435e+13
4.004050e+03, 1.527149e+13
4.008055e+03, 1.175472e+13
4.012063e+03, 1.212135e+13
4.016075e+03, 1.674048e+13
4.020091e+03, 1.446463e+13
4.024111e+03, 1.256550e+13
4.028135e+03, 1.397593e+13
4.032163e+03, 5.756974e+12
4.036195e+03, 7.821447e+12
4.040231e+03, 1.577516e+13
4.044272e+03, 1.123862e+13
4.048316e+03, 7.713234e+12
4.052364e+03, 1.648599e+13
4.056417e+03, 1.559517e+13
4.060473e+03, 1.383408e+13
4.064533e+03, 8.789692e+12
4.068598e+03, 1.434758e+13
4.072667e+03, 1.047734e+13
4.076739e+03, 1.428830e+13
4.080816e+03, 1.489840e+13
4.084897e+03, 1.575492e+13
4.088982e+03, 2.104273e+13
4.093071e+03, 1.725884e+13
4.097164e+03, 1.272684e+13
4.101261e+03, 1.029568e+13
4.105362e+03, 1.374856e+13
4.109468e+03, 1.304240e+13
4.113577e+03, 1.223036e+13
4.117691e+03, 1.212848e+13
4.121808e+03, 1.260223e+13
4.125930e+03, 1.596118e+13
4.130056e+03, 1.257054e+13
4.134186e+03, 9.530049e+12
4.138320e+03, 1.598632e+13
4.142459e+03, 1.168245e+13
4.146601e+03, 1.156373e+13
4.150748e+03, 1.432651e+13
4.154898e+03, 1.459041e+13
4.159053e+03, 1.635506e+13
4.163212e+03, 1.872472e+13
4.167376e+03, 1.343711e+13
4.171543e+03, 1.293541e+13
4.175714e+03, 1.195001e+13
4.179890e+03, 1.589372e+13
4.184070e+03, 1.393192e+13
4.188254e+03, 1.270656e+13
4.192442e+03, 1.421473e+13
4.196635e+03, 1.405332e+13
4.200831e+03, 9.997825e+12
4.205032e+03, 1.033861e+13
4.209237e+03, 1.076458e+13
4.213447e+03, 9.206670e+12
4.217660e+03, 6.716787e+12
4.221878e+03, 4.887633e+12
4.226100e+03, 2.393852e+12
4.230326e+03, 2.837545e+12
4.234556e+03, 5.155635e+12
4.238791e+03, 7.679079e+12
4.243029e+03, 1.008171e+13
4.247272e+03, 1.195790e+13
4.251520e+03, 9.620848e+12
4.255771e+03, 6.243081e+12
4.260027e+03, 1.112322e+13
4.264287e+03, 1.524755e+13
4.268551e+03, 1.472994e+13
4.272820e+03, 9.022806e+12
4.277093e+03, 7.852973e+12
4.281370e+03, 1.443836e+13
4.285651e+03, 1.106397e+13
4.289937e+03, 7.864040e+12
4.294227e+03, 1.165812e+13
4.298521e+03, 1.295856e+13
4.302819e+03, 8.694079e+12
4.307122e+03, 1.051650e+13
4.311429e+03, 1.541897e+13
4.315741e+03, 1.709878e+13
4.320057e+03, 1.562539e+13
4.324377e+03, 1.700064e+13
4.328701e+03, 1.531601e+13
4.333030e+03, 2.161599e+13
4.337363e+03, 2.019901e+13
4.341700e+03, 1.872767e+13
4.346042e+03, 1.911798e+13
4.350388e+03, 2.238456e+13
4.354738e+03, 1.601993e+13
4.359093e+03, 2.032413e+13
4.363452e+03, 2.348232e+13
4.367815e+03, 2.370213e+13
4.372183e+03, 2.123792e+13
4.376555e+03, 1.691143e+13
4.380932e+03, 1.750354e+13
4.385313e+03, 1.044204e+13
4.389698e+03, 1.834883e+13
4.394088e+03, 2.097746e+13
4.398482e+03, 2.273836e+13
4.402881e+03, 1.941692e+13
4.407283e+03, 1.195644e+13
4.411691e+03, 2.093473e+13
4.416102e+03, 1.786856e+13
4.420518e+03, 2.424001e+13
4.424939e+03, 1.602583e+13
4.429364e+03, 1.642652e+13
4.433793e+03, 1.802142e+13
4.438227e+03, 1.552177e+13
4.442665e+03, 1.990456e+13
4.447108e+03, 2.302682e+13
4.451555e+03, 2.091458e+13
4.456007e+03, 1.070457e+13
4.460463e+03, 1.601356e+13
4.464923e+03, 1.872426e+13
4.469388e+03, 2.230555e+13
4.473857e+03, 2.429339e+13
4.478331e+03, 2.473788e+13
4.482810e+03, 2.087865e+13
4.487292e+03, 2.533096e+13
4.491780e+03, 2.314141e+13
4.496272e+03, 2.070255e+13
4.500768e+03, 2.605410e+13
4.505269e+03, 2.708561e+13
4.509774e+03, 2.519920e+13
4.514284e+03, 2.310391e+13
4.518798e+03, 2.436525e+13
4.523317e+03, 2.493235e+13
4.527840e+03, 1.897439e+13
4.532368e+03, 1.968573e+13
4.536900e+03, 1.652885e+13
4.541437e+03, 2.528473e+13
4.545979e+03, 2.340610e+13
4.550525e+03, 2.347742e+13
4.555075e+03, 2.105485e+13
4.559630e+03, 2.728515e+13
4.564190e+03, 2.811711e+13
4.568754e+03, 2.845157e+13
4.573323e+03, 2.562837e+13
4.577896e+03, 2.565012e+13
4.582474e+03, 2.210053e+13
4.587056e+03, 2.050240e+13
4.591643e+03, 2.296315e+13
4.596235e+03, 2.164931e+13
4.600831e+03, 2.308959e+13
4.605432e+03, 2.388522e+13
4.610038e+03, 2.424077e+13
4.614648e+03, 2.647034e+13
4.619262e+03, 2.410223e+13
4.623882e+03, 2.626055e+13
4.628505e+03, 2.184026e+13
4.633134e+03, 2.310665e+13
4.637767e+03, 2.288428e+13
4.642405e+03, 2.329523e+13
4.647047e+03, 2.137253e+13
4.651694e+03, 2.069796e+13
4.656346e+03, 2.279771e+13
4.661002e+03, 2.863465e+13
4.665663e+03, 2.635669e+13
4.670329e+03, 2.071153e+13
4.674999e+03, 2.298127e+13
4.679674e+03, 2.444431e+13
4.684354e+03, 2.084620e+13
4.689038e+03, 2.424932e+13
4.693727e+03, 2.486361e+13
4.698421e+03, 2.473615e+13
4.703120e+03, 2.526032e+13
4.707823e+03, 2.625439e+13
4.712530e+03, 2.365418e+13
4.717243e+03, 2.086998e+13
4.721960e+03, 2.262424e+13
4.726682e+03, 2.419952e+13
4.731409e+03, 2.326453e+13
4.736140e+03, 2.348199e+13
4.740876e+03, 2.346700e+13
4.745617e+03, 2.333613e+13
4.750363e+03, 2.550293e+13
4.755113e+03, 2.274796e+13
4.759868e+03, 2.037185e+13
4.764628e+03, 1.595994e+13
4.769393e+03, 1.584606e+13
4.774162e+03, 1.698901e+13
4.778936e+03, 1.742694e+13
4.783715e+03, 1.835073e+13
4.788499e+03, 1.769640e+13
4.793288e+03, 2.027334e+13
4.798081e+03, 2.321749e+13
4.802879e+03, 2.245804e+13
4.807682e+03, 1.924850e+13
4.812490e+03, 1.911079e+13
4.817302e+03, 2.070796e+13
4.822119e+03, 2.212933e+13
4.826941e+03, 2.097679e+13
4.831768e+03, 2.153636e+13
4.836600e+03, 2.397977e+13
4.841437e+03, 2.267082e+13
4.846278e+03, 2.560058e+13
4.851124e+03, 2.378274e+13
4.855976e+03, 2.483502e+13
4.860832e+03, 2.609527e+13
4.865692e+03, 2.670085e+13
4.870558e+03, 2.564031e+13
4.875429e+03, 2.544185e+13
4.880304e+03, 2.630373e+13
4.885184e+03, 2.738397e+13
4.890070e+03, 2.699048e+13
4.894960e+03, 2.839052e+13
4.899855e+03, 2.889042e+13
4.904754e+03, 2.840743e+13
4.909659e+03, 2.891977e+13
4.914569e+03, 2.959476e+13
4.919483e+03, 2.819648e+13
4.924403e+03, 2.962793e+13
4.929327e+03, 2.988350e+13
4.934257e+03, 3.208772e+13
4.939191e+03, 3.001776e+13
4.944130e+03, 3.051514e+13
4.949074e+03, 2.996824e+13
4.954023e+03, 3.090073e+13
4.958977e+03, 1.608163e+13
4.963936e+03, 1.760283e+13
4.968900e+03, 1.910010e+13
4.973869e+03, 2.031610e+13
4.978843e+03, 2.068065e+13
4.983822e+03, 1.935592e+13
4.988806e+03, 2.185517e+13
4.993794e+03, 2.085189e+13
4.998788e+03, 2.082369e+13
5.003787e+03, 1.763822e+13
5.008791e+03, 1.648888e+13
5.013800e+03, 1.763908e+13
5.018813e+03, 1.956047e+13
5.023832e+03, 1.758614e+13
5.028856e+03, 1.939146e+13
5.033885e+03, 2.399927e+13
5.038919e+03, 1.976627e+13
5.043958e+03, 1.812441e+13
5.049002e+03, 2.199937e+13
5.054051e+03, 2.200906e+13
5.059105e+03, 2.147383e+13
5.064164e+03, 1.974696e+13
5.069228e+03, 2.076019e+13
5.074297e+03, 2.281968e+13
5.079372e+03, 2.150310e+13
5.084451e+03, 2.214047e+13
5.089535e+03, 2.212405e+13
5.094625e+03, 2.237099e+13
5.099720e+03, 2.098255e+13
5.104819e+03, 2.334687e+13
5.109924e+03, 2.152715e+13
5.115034e+03, 2.640809e+13
5.120149e+03, 2.219361e+13
5.125269e+03, 2.205365e+13
5.130394e+03, 2.005945e+13
5.135525e+03, 2.736838e+13
5.140660e+03, 2.501211e+13
5.145801e+03, 2.125963e+13
5.150947e+03, 2.170274e+13
5.156098e+03, 2.013448e+13
5.161254e+03, 3.216573e+13
5.166415e+03, 2.412962e+13
5.171582e+03, 1.280266e+13
5.176753e+03, 1.511870e+13
5.181930e+03, 1.418650e+13
5.187112e+03, 1.885677e+13
5.192299e+03, 2.048391e+13
5.197491e+03, 2.355546e+13
5.202689e+03, 2.331397e+13
5.207891e+03, 1.329168e+13
5.213099e+03, 2.350671e+13
5.218312e+03, 3.197351e+13
5.223531e+03, 3.373272e+13
5.228754e+03, 2.880409e+13
5.233983e+03, 3.550916e+13
5.239217e+03, 3.690207e+13
5.244456e+03, 3.330672e+13
5.249701e+03, 3.042688e+13
5.254950e+03, 3.465319e+13
5.260205e+03, 3.656173e+13
5.265465e+03, 2.294193e+13
5.270731e+03, 2.298365e+13
5.276002e+03, 3.414250e+13
5.281278e+03, 3.791585e+13
5.286559e+03, 3.903814e+13
5.291846e+03, 4.124435e+13
5.297137e+03, 3.514869e+13
5.302435e+03, 3.728315e+13
5.307737e+03, 4.353228e+13
5.313045e+03, 4.033036e+13
5.318358e+03, 4.137885e+13
5.323676e+03, 3.829795e+13
5.329000e+03, 2.680059e+13
5.334329e+03, 3.891489e+13
5.339663e+03, 4.018189e+13
5.345003e+03, 3.591577e+13
5.350348e+03, 3.661818e+13
5.355698e+03, 4.429843e+13
5.361054e+03, 4.204064e+13
5.366415e+03, 3.867736e+13
5.371781e+03, 3.300317e+13
5.377153e+03, 4.198148e+13
5.382530e+03, 4.332841e+13
5.387913e+03, 4.376169e+13
5.393301e+03, 4.054514e+13
5.398694e+03, 3.493989e+13
5.404093e+03, 3.932561e+13
5.409497e+03, 3.214135e+13
5.414906e+03, 4.247492e+13
5.420321e+03, 4.436831e+13
5.425741e+03, 4.239540e+13
5.431167e+03, 3.752396e+13
5.436598e+03, 3.749547e+13
5.442035e+03, 4.503058e+13
5.447477e+03, 3.577265e+13
5.452924e+03, 2.981142e+13
5.458377e+03, 2.886891e+13
5.463836e+03, 3.271603e+13
5.469300e+03, 3.480484e+13
5.474769e+03, 3.504297e+13
5.480244e+03, 3.463328e+13
5.485724e+03, 3.719960e+13
5.491210e+03, 3.759309e+13
5.496701e+03, 3.567931e+13
5.502198e+03, 3.340308e+13
5.507700e+03, 3.429897e+13
5.513207e+03, 3.225233e+13
5.518721e+03, 3.647379e+13
5.524239e+03, 3.992381e+13
5.529764e+03, 3.944964e+13
5.535293e+03, 3.904852e+13
5.540829e+03, 4.168808e+13
5.546370e+03, 4.055034e+13
5.551916e+03, 4.217751e+13
5.557468e+03, 4.302533e+13
5.563025e+03, 4.280170e+13
5.568588e+03, 4.049234e+13
5.574157e+03, 4.186655e+13
5.579731e+03, 4.332381e+13
5.585311e+03, 4.014212e+13
5.590896e+03, 3.248535e+13
5.596487e+03, 3.595673e+13
5.602083e+03, 2.808456e+13
5.607686e+03, 3.699413e+13
5.613293e+03, 3.786212e+13
5.618907e+03, 3.467046e+13
5.624525e+03, 3.772829e+13
5.630150e+03, 3.706950e+13
5.635780e+03, 3.966651e+13
5.641416e+03, 3.873233e+13
5.647057e+03, 3.938228e+13
5.652704e+03, 4.268033e+13
5.658357e+03, 4.224629e+13
5.664015e+03, 3.831276e+13
5.669679e+03, 4.060504e+13
5.675349e+03, 4.103977e+13
5.681024e+03, 4.416587e+13
5.686705e+03, 4.144502e+13
5.692392e+03, 4.356761e+13
5.698085e+03, 4.384983e+13
5.703783e+03, 4.280409e+13
5.709486e+03, 4.317905e+13
5.715196e+03, 4.398517e+13
5.720911e+03, 4.756910e+13
5.726632e+03, 4.583329e+13
5.732359e+03, 4.794135e+13
5.738091e+03, 4.901802e+13
5.743829e+03, 4.936339e+13
5.749573e+03, 5.039576e+13
5.755323e+03, 5.030234e+13
5.761078e+03, 4.623387e+13
5.766839e+03, 4.518496e+13
5.772606e+03, 4.688869e+13
5.778378e+03, 4.739833e+13
5.784157e+03, 4.641463e+13
5.789941e+03, 4.707320e+13
5.795731e+03, 5.030909e+13
5.801527e+03, 5.027653e+13
5.807328e+03, 5.047801e+13
5.813135e+03, 4.652153e+13
5.818949e+03, 4.698743e+13
5.824768e+03, 4.849506e+13
5.830592e+03, 4.877776e+13
5.836423e+03, 4.900293e+13
5.842259e+03, 4.835651e+13
5.848102e+03, 4.721774e+13
5.853950e+03, 4.335344e+13
5.859804e+03, 3.956049e+13
5.865663e+03, 4.001490e+13
5.871529e+03, 3.944244e+13
5.877401e+03, 3.518774e+13
5.883278e+03, 2.989682e+13
5.889161e+03, 1.759706e+13
5.895050e+03, 1.526561e+13
5.900945e+03, 2.176634e+13
5.906846e+03, 3.101499e+13
5.912753e+03, 3.462988e+13
5.918666e+03, 3.611619e+13
5.924585e+03, 3.661332e+13
5.930509e+03, 3.812186e+13
5.936440e+03, 4.010259e+13
5.942376e+03, 4.048257e+13
5.948319e+03, 3.973018e+13
5.954267e+03, 3.975263e+13
5.960221e+03, 3.964241e+13
5.966181e+03, 4.103706e+13
5.972148e+03, 4.183126e+13
5.978120e+03, 4.138144e+13
5.984098e+03, 4.341107e+13
5.990082e+03, 4.515894e+13
5.996072e+03, 4.500156e+13
6.002068e+03, 4.507595e+13
6.008070e+03, 4.445752e+13
6.014078e+03, 4.670188e+13
6.020092e+03, 4.646276e+13
6.026112e+03, 4.772716e+13
6.032139e+03, 5.000321e+13
6.038171e+03, 5.108029e+13
6.044209e+03, 5.023036e+13
6.050253e+03, 5.230309e+13
6.056303e+03, 5.213142e+13
6.062360e+03, 5.232857e+13
6.068422e+03, 5.189312e+13
6.074490e+03, 5.553622e+13
6.080565e+03, 5.522253e+13
6.086645e+03, 5.554552e+13
6.092732e+03, 5.374550e+13
6.098825e+03, 5.494364e+13
6.104924e+03, 4.608976e+13
6.111029e+03, 5.346262e+13
6.117140e+03, 5.631373e+13
6.123257e+03, 4.247186e+13
6.129380e+03, 5.409405e+13
6.135509e+03, 5.490048e+13
6.141645e+03, 5.457107e+13
6.147787e+03, 5.722707e+13
6.153934e+03, 5.233685e+13
6.160088e+03, 4.264180e+13
6.166248e+03, 3.223339e+13
6.172415e+03, 3.805252e+13
6.178587e+03, 4.311431e+13
6.184766e+03, 4.414392e+13
6.190950e+03, 3.757886e+13
6.197141e+03, 3.993902e+13
6.203338e+03, 4.076568e+13
6.209542e+03, 4.280976e+13
6.215751e+03, 3.562332e+13
6.221967e+03, 3.647965e+13
6.228189e+03, 3.320928e+13
6.234417e+03, 3.535157e+13
6.240652e+03, 3.554021e+13
6.246892e+03, 3.608945e+13
6.253139e+03, 3.860986e+13
6.259392e+03, 3.698061e+13
6.265652e+03, 4.013089e+13
6.271917e+03, 4.203406e+13
6.278189e+03, 4.087478e+13
6.284467e+03, 4.197695e+13
6.290752e+03, 4.276769e+13
6.297043e+03, 4.171959e+13
6.303340e+03, 4.423848e+13
6.309643e+03, 4.362045e+13
6.315953e+03, 4.675623e+13
6.322269e+03, 4.459394e+13
6.328591e+03, 4.688345e+13
6.334920e+03, 4.676536e+13
6.341254e+03, 4.950470e+13
6.347596e+03, 5.108069e+13
6.353943e+03, 4.969106e+13
6.360297e+03, 4.447626e+13
6.366658e+03, 4.424402e+13
6.373024e+03, 4.485385e+13
6.379397e+03, 4.171928e+13
6.385777e+03, 4.050832e+13
6.392162e+03, 3.911658e+13
6.398555e+03, 4.371114e+13
6.404953e+03, 4.555722e+13
6.411358e+03, 4.896598e+13
6.417769e+03, 4.813407e+13
6.424187e+03, 4.777854e+13
6.430611e+03, 4.790494e+13
6.437042e+03, 4.819631e+13
6.443479e+03, 4.550862e+13
6.449923e+03, 4.908267e+13
6.456372e+03, 5.130792e+13
6.462829e+03, 4.421292e+13
6.469292e+03, 5.505352e+13
6.475761e+03, 5.424432e+13
6.482237e+03, 5.571628e+13
6.488719e+03, 5.376652e+13
6.495208e+03, 4.558688e+13
6.501703e+03, 5.084772e+13
6.508205e+03, 5.737248e+13
6.514713e+03, 5.799698e+13
6.521227e+03, 5.849334e+13
6.527749e+03, 5.988836e+13
6.534276e+03, 6.022958e+13
6.540811e+03, 6.186961e+13
6.547352e+03, 5.799041e+13
6.553899e+03, 5.722215e+13
6.560453e+03, 5.806970e+13
6.567013e+03, 5.843168e+13
6.573580e+03, 5.490899e+13
6.580154e+03, 5.784703e+13
6.586734e+03, 5.936895e+13
6.593321e+03, 5.782236e+13
6.599914e+03, 5.986923e+13
6.606514e+03, 5.995471e+13
6.613120e+03, 5.806910e+13
6.619734e+03, 5.783009e+13
6.626353e+03, 5.748744e+13
6.632980e+03, 5.752747e+13
6.639613e+03, 5.809788e+13
6.646252e+03, 5.778270e+13
6.652899e+03, 5.165604e+13
6.659551e+03, 5.072957e+13
6.666211e+03, 5.125271e+13
6.672877e+03, 5.383217e+13
6.679550e+03, 5.044594e+13
6.686230e+03, 4.430833e+13
6.692916e+03, 4.750149e+13
6.699609e+03, 4.856891e+13
6.706308e+03, 4.625804e+13
6.713015e+03, 4.526977e+13
6.719728e+03, 3.852057e+13
6.726447e+03, 3.996762e+13
6.733174e+03, 4.168863e+13
6.739907e+03, 4.209261e+13
6.746647e+03, 4.116313e+13
6.753394e+03, 3.900724e+13
6.760147e+03, 4.091313e+13
6.766907e+03, 4.254845e+13
6.773674e+03, 4.448811e+13
6.780448e+03, 4.215532e+13
6.787228e+03, 3.836902e+13
6.794015e+03, 3.920263e+13
6.800809e+03, 4.015244e+13
6.807610e+03, 4.150548e+13
6.814418e+03, 4.139078e+13
6.821232e+03, 4.063052e+13
6.828053e+03, 4.055407e+13
6.834882e+03, 4.076198e+13
6.841716e+03, 3.992518e+13
6.848558e+03, 4.061490e+13
6.855407e+03, 3.770170e+13
6.862262e+03, 3.622860e+13
6.869124e+03, 3.913183e+13
6.875994e+03, 4.066375e+13
6.882869e+03, 4.035960e+13
6.889752e+03, 3.936684e+13
6.896642e+03, 4.231155e+13
6.903539e+03, 4.156475e+13
6.910442e+03, 4.548336e+13
6.917353e+03, 4.365546e+13
6.924270e+03, 4.712487e+13
6.931194e+03, 4.923853e+13
6.938126e+03, 4.925933e+13
6.945064e+03, 5.162435e+13
6.952009e+03, 5.339907e+13
6.958961e+03, 5.306836e+13
6.965920e+03, 5.420624e+13
6.972886e+03, 5.433157e+13
6.979859e+03, 5.255876e+13
6.986838e+03, 5.723444e+13
6.993825e+03, 5.352031e+13
7.000819e+03, 5.586545e+13
7.007820e+03, 5.685354e+13
7.014828e+03, 5.794691e+13
7.021843e+03, 5.867165e+13
7.028864e+03, 6.445821e+13
7.035893e+03, 6.058777e+13
7.042929e+03, 6.964650e+13
7.049972e+03, 7.283684e+13
7.057022e+03, 5.744746e+13
7.064079e+03, 5.157320e+13
7.071143e+03, 5.671157e+13
7.078214e+03, 5.844088e+13
7.085292e+03, 5.901189e+13
7.092378e+03, 4.363686e+13
7.099470e+03, 4.633186e+13
7.106570e+03, 4.978264e+13
7.113676e+03, 5.120316e+13
7.120790e+03, 5.509106e+13
7.127911e+03, 4.274791e+13
7.135039e+03, 3.929856e+13
7.142174e+03, 4.120581e+13
7.149316e+03, 3.971282e+13
7.156465e+03, 4.716070e+13
7.163622e+03, 4.437391e+13
7.170785e+03, 4.733454e+13
7.177956e+03, 5.010766e+13
7.185134e+03, 5.196303e+13
7.192319e+03, 5.243659e+13
7.199511e+03, 5.068642e+13
7.206711e+03, 4.808957e+13
7.213918e+03, 5.048704e+13
7.221132e+03, 5.397805e+13
7.228353e+03, 5.589072e+13
7.235581e+03, 5.708829e+13
7.242817e+03, 5.807473e+13
7.250059e+03, 5.981566e+13
7.257309e+03, 6.168814e+13
7.264567e+03, 6.371703e+13
7.271831e+03, 6.281265e+13
7.279103e+03, 6.461496e+13
7.286382e+03, 6.599685e+13
7.293669e+03, 6.630167e+13
7.300962e+03, 6.864145e+13
7.308263e+03, 6.859822e+13
7.315572e+03, 6.992909e+13
7.322887e+03, 7.049556e+13
7.330210e+03, 6.588796e+13
7.337540e+03, 7.241014e+13
7.344878e+03, 7.181820e+13
7.352223e+03, 7.270275e+13
7.359575e+03, 7.114360e+13
7.366934e+03, 7.279362e+13
7.374301e+03, 7.565228e+13
7.381676e+03, 7.566446e+13
7.389057e+03, 7.502641e+13
7.396446e+03, 7.627307e+13
7.403843e+03, 7.485674e+13
7.411247e+03, 7.659815e+13
7.418658e+03, 7.605741e+13
7.426077e+03, 7.550733e+13
7.433503e+03, 7.720166e+13
7.440936e+03, 7.745381e+13
7.448377e+03, 7.614698e+13
7.455825e+03, 7.805887e+13
7.463281e+03, 7.584934e+13
7.470745e+03, 7.836894e+13
7.478215e+03, 7.896245e+13
7.485694e+03, 7.829540e+13
7.493179e+03, 7.725699e+13
7.500672e+03, 7.754592e+13
7.508173e+03, 7.842043e+13
7.515681e+03, 7.799255e+13
7.523197e+03, 7.921576e+13
7.530720e+03, 7.826184e+13
7.538251e+03, 7.936030e+13
7.545789e+03, 7.990194e+13
7.553335e+03, 7.967244e+13
7.560888e+03, 7.995729e+13
7.568449e+03, 7.935930e+13
7.576018e+03, 7.889828e+13
7.583594e+03, 7.963873e+13
7.591177e+03, 7.469596e+13
7.598768e+03, 7.550497e+13
7.606367e+03, 7.506814e+13
7.613973e+03, 7.451990e+13
7.621587e+03, 7.632723e+13
7.629209e+03, 7.325847e+13
7.636838e+03, 7.229905e+13
7.644475e+03, 7.254346e+13
7.652120e+03, 7.258416e+13
7.659772e+03, 7.205161e+13
7.667431e+03, 5.636070e+13
7.675099e+03, 6.563849e+13
7.682774e+03, 6.615677e+13
7.690457e+03, 6.738394e+13
7.698147e+03, 6.046506e+13
7.705845e+03, 6.590409e+13
7.713551e+03, 6.672246e+13
7.721265e+03, 6.810004e+13
7.728986e+03, 6.921637e+13
7.736715e+03, 7.116375e+13
7.744452e+03, 6.956851e+13
7.752196e+03, 6.488908e+13
7.759948e+03, 6.771297e+13
7.767708e+03, 6.749498e+13
7.775476e+03, 6.929697e+13
7.783252e+03, 6.755504e+13
7.791035e+03, 6.766502e+13
7.798826e+03, 6.860028e+13
7.806625e+03, 7.101942e+13
7.814431e+03, 7.190135e+13
7.822246e+03, 7.091659e+13
7.830068e+03, 6.942160e+13
7.837898e+03, 6.844397e+13
7.845736e+03, 6.845068e+13
7.853582e+03, 7.091809e+13
7.861435e+03, 7.189417e+13
7.869297e+03, 7.187345e+13
7.877166e+03, 7.299132e+13
7.885043e+03, 7.362216e+13
7.892928e+03, 7.364042e+13
7.900821e+03, 7.460665e+13
7.908722e+03, 7.340615e+13
7.916631e+03, 7.284838e+13
7.924547e+03, 7.403006e+13
7.932472e+03, 7.499917e+13
7.940404e+03, 7.381426e+13
7.948345e+03, 7.339577e+13
7.956293e+03, 7.613277e+13
7.964249e+03, 7.663381e+13
7.972214e+03, 7.748420e+13
7.980186e+03, 7.642619e+13
7.988166e+03, 7.675357e+13
7.996154e+03, 7.704273e+13
8.004150e+03, 7.655475e+13
8.012154e+03, 7.808659e+13
8.020167e+03, 7.851381e+13
8.028187e+03, 7.722069e+13
8.036215e+03, 7.881079e+13
8.044251e+03, 7.856869e+13
8.052295e+03, 7.788383e+13
8.060348e+03, 7.933258e+13
8.068408e+03, 7.780745e+13
8.076476e+03, 7.830520e+13
8.084553e+03, 7.900403e+13
8.092637e+03, 7.953177e+13
8.100730e+03, 8.024499e+13
8.108831e+03, 8.045513e+13
8.116940e+03, 7.851965e+13
8.125057e+03, 7.933927e+13
8.133182e+03, 8.070589e+13
8.141315e+03, 8.094113e+13
8.149456e+03, 8.119589e+13
8.157606e+03, 8.131076e+13
8.165763e+03, 8.008915e+13
8.173929e+03, 8.078844e+13
8.182103e+03, 7.205802e+13
8.190285e+03, 7.644866e+13
8.198475e+03, 6.556415e+13
8.206674e+03, 7.744355e+13
8.214880e+03, 7.892856e+13
8.223095e+03, 7.822813e+13
8.231318e+03, 7.985143e+13
8.239550e+03, 7.988093e+13
8.247789e+03, 7.993960e+13
8.256037e+03, 7.916000e+13
8.264293e+03, 8.035036e+13
8.272557e+03, 7.912388e+13
8.280830e+03, 7.899836e+13
8.289111e+03, 7.862184e+13
8.297400e+03, 7.839846e+13
8.305697e+03, 7.765085e+13
8.314003e+03, 7.842218e+13
8.322317e+03, 7.870063e+13
8.330639e+03, 7.493102e+13
8.338970e+03, 7.750705e+13
8.347309e+03, 7.765044e+13
8.355656e+03, 7.760609e+13
8.364012e+03, 7.600499e+13
8.372376e+03, 7.842129e+13
8.380748e+03, 7.502102e+13
8.389129e+03, 7.186976e+13
8.397518e+03, 7.670835e+13
8.405916e+03, 7.818211e+13
8.414322e+03, 7.645356e+13
8.422736e+03, 7.684302e+13
8.431159e+03, 7.497791e+13
8.439590e+03, 6.907337e+13
8.448029e+03, 7.387907e+13
8.456477e+03, 7.114168e+13
8.464934e+03, 7.259847e+13
8.473399e+03, 6.985305e+13
8.481872e+03, 7.310545e+13
8.490354e+03, 7.372560e+13
8.498845e+03, 6.880405e+13
8.507343e+03, 7.304247e+13
8.515851e+03, 7.114183e+13
8.524367e+03, 7.237491e+13
8.532891e+03, 7.300104e+13
8.541424e+03, 6.453824e+13
8.549965e+03, 7.139058e+13
8.558515e+03, 7.468890e+13
8.567074e+03, 7.518190e+13
8.575641e+03, 7.509317e+13
8.584216e+03, 7.493213e+13
8.592801e+03, 7.569494e+13
8.601393e+03, 7.577165e+13
8.609995e+03, 7.533109e+13
8.618605e+03, 7.621095e+13
8.627223e+03, 7.653629e+13
8.635851e+03, 7.677928e+13
8.644486e+03, 7.710923e+13
8.653131e+03, 7.668705e+13
8.661784e+03, 6.769335e+13
8.670446e+03, 7.584020e+13
8.679116e+03, 7.482336e+13
8.687795e+03, 7.181574e+13
8.696483e+03, 7.497812e+13
8.705180e+03, 7.610613e+13
8.713885e+03, 7.545203e+13
8.722599e+03, 7.601155e+13
8.731321e+03, 7.728340e+13
8.740053e+03, 7.547393e+13
8.748793e+03, 7.719493e+13
8.757542e+03, 7.640346e+13
8.766299e+03, 7.634911e+13
8.775065e+03, 7.696756e+13
8.783840e+03, 7.744177e+13
8.792624e+03, 7.779616e+13
8.801417e+03, 7.693199e+13
8.810218e+03, 7.310499e+13
8.819029e+03, 7.889705e+13
8.827848e+03, 7.398482e+13
8.836675e+03, 7.813953e+13
8.845512e+03, 7.814034e+13
8.854358e+03, 7.889138e+13
8.863212e+03, 7.348484e+13
8.872075e+03, 7.192278e+13
8.880947e+03, 7.323473e+13
8.889828e+03, 7.343408e+13
8.898718e+03, 7.380655e+13
8.907617e+03, 7.511870e+13
8.916524e+03, 7.501820e+13
8.925441e+03, 7.470843e+13
8.934366e+03, 7.461133e+13
8.943301e+03, 7.397384e+13
8.952244e+03, 7.390712e+13
8.961196e+03, 7.478474e+13
8.970157e+03, 7.466870e+13
8.979128e+03, 7.414041e+13
8.988107e+03, 7.555341e+13
8.997095e+03, 7.599828e+13
9.006092e+03, 7.440995e+13
9.015098e+03, 7.303314e+13
9.024113e+03, 7.379806e+13
9.033137e+03, 7.464687e+13
9.042170e+03, 7.573264e+13
9.051213e+03, 7.573737e+13
9.060264e+03, 7.490906e+13
9.069324e+03, 7.574847e+13
9.078393e+03, 7.607517e+13
9.087472e+03, 7.326716e+13
9.096559e+03, 7.563350e+13
9.105656e+03, 7.574944e+13
9.114761e+03, 7.701018e+13
9.123876e+03, 7.601916e+13
9.133000e+03, 7.695266e+13
9.142133e+03, 7.658355e+13
9.151275e+03, 7.610157e+13
9.160426e+03, 7.728222e+13
9.169587e+03, 7.721326e+13
9.178757e+03, 7.608809e+13
9.187935e+03, 7.776156e+13
9.197123e+03, 7.755715e+13
9.206320e+03, 7.650253e+13
9.215527e+03, 7.643968e+13
9.224742e+03, 7.566561e+13
9.233967e+03, 7.491519e+13
9.243201e+03, 7.650769e+13
9.252444e+03, 7.512864e+13
9.261697e+03, 7.511582e+13
9.270958e+03, 7.595194e+13
9.280229e+03, 7.522381e+13
9.289509e+03, 7.512644e+13
9.298799e+03, 7.440020e+13
9.308098e+03, 7.509345e+13
9.317406e+03, 7.507013e+13
9.326723e+03, 7.445634e+13
9.336050e+03, 7.522673e+13
9.345386e+03, 7.522865e+13
9.354731e+03, 7.440551e+13
9.364086e+03, 7.354255e+13
9.373450e+03, 7.434933e+13
9.382824e+03, 7.460434e+13
9.392206e+03, 7.442089e+13
9.401599e+03, 7.400191e+13
9.411000e+03, 7.497296e+13
9.420411e+03, 7.403511e+13
9.429832e+03, 7.524212e+13
9.439262e+03, 7.471429e+13
9.448701e+03, 7.376074e+13
9.458149e+03, 7.496621e+13
9.467608e+03, 7.422426e+13
9.477075e+03, 7.548731e+13
9.486552e+03, 7.496467e+13
9.496039e+03, 7.485828e+13
9.505535e+03, 7.496386e+13
9.515040e+03, 7.454747e+13
9.524555e+03, 7.546798e+13
9.534080e+03, 7.507053e+13
9.543614e+03, 7.475494e+13
9.553158e+03, 7.352533e+13
9.562711e+03, 7.478407e+13
9.572274e+03, 7.471440e+13
9.581846e+03, 7.539818e+13
9.591428e+03, 7.541619e+13
9.601019e+03, 7.255703e+13
9.610620e+03, 7.502921e+13
9.620231e+03, 7.531515e+13
9.629851e+03, 7.514448e+13
9.639481e+03, 7.074542e+13
9.649120e+03, 7.288741e+13
9.658769e+03, 7.356256e+13
9.668428e+03, 7.397133e+13
9.678097e+03, 7.133184e+13
9.687775e+03, 7.279947e+13
9.697463e+03, 7.467240e+13
9.707160e+03, 7.131852e+13
9.716867e+03, 7.366976e+13
9.726584e+03, 7.175852e+13
9.736311e+03, 7.335368e+13
9.746047e+03, 7.134417e+13
9.755793e+03, 7.402831e+13
9.765549e+03, 7.437225e+13
9.775314e+03, 7.200440e+13
9.785090e+03, 7.062898e+13
9.794875e+03, 7.195811e+13
9.804670e+03, 7.410300e+13
9.814474e+03, 7.362006e+13
9.824289e+03, 7.349507e+13
9.834113e+03, 7.266775e+13
9.843947e+03, 7.339534e+13
9.853791e+03, 7.377116e+13
9.863645e+03, 7.327724e+13
9.873509e+03, 7.333822e+13
9.883382e+03, 7.403355e+13
9.893265e+03, 7.371866e+13
9.903159e+03, 6.896138e+13
9.913062e+03, 6.589166e+13
9.922975e+03, 6.683747e+13
9.932898e+03, 6.733741e+13
9.942831e+03, 7.065378e+13
9.952774e+03, 7.065774e+13
9.962726e+03, 7.012735e+13
9.972689e+03, 6.945394e+13
9.982662e+03, 6.980125e+13
9.992644e+03, 6.938150e+13
1.000264e+04, 6.929812e+13
1.001264e+04, 6.929812e+13
1.002265e+04, 7.047322e+13
1.003268e+04, 7.002610e+13
1.004271e+04, 7.024742e+13
1.005275e+04, 6.803320e+13
1.006280e+04, 6.700945e+13
1.007287e+04, 7.033607e+13
1.008294e+04, 7.089126e+13
1.009302e+04, 6.980698e+13
1.010311e+04, 7.118645e+13
1.011322e+04, 6.996431e+13
1.012333e+04, 6.985481e+13
1.013345e+04, 7.046623e+13
1.014359e+04, 6.937338e+13
1.015373e+04, 6.923503e+13
1.016389e+04, 6.911380e+13
1.017405e+04, 7.040049e+13
1.018422e+04, 6.877725e+13
1.019441e+04, 6.994731e+13
1.020460e+04, 7.023049e+13
1.021481e+04, 6.972462e+13
1.022502e+04, 6.875147e+13
1.023525e+04, 7.054506e+13
1.024548e+04, 7.091501e+13
1.025573e+04, 6.801920e+13
1.026598e+04, 6.651578e+13
1.027625e+04, 6.723660e+13
1.028652e+04, 6.712957e+13
1.029681e+04, 6.800232e+13
1.030711e+04, 6.845445e+13
1.031742e+04, 6.892242e+13
1.032773e+04, 6.827739e+13
1.033806e+04, 6.776192e+13
1.034840e+04, 6.301026e+13
1.035875e+04, 6.938242e+13
1.036911e+04, 6.900858e+13
1.037947e+04, 6.826589e+13
1.038985e+04, 6.919474e+13
1.040024e+04, 6.646323e+13
1.041064e+04, 6.936071e+13
1.042106e+04, 6.800837e+13
1.043148e+04, 6.722684e+13
1.044191e+04, 6.921526e+13
1.045235e+04, 6.912543e+13
1.046280e+04, 6.928185e+13
1.047326e+04, 6.721311e+13
1.048374e+04, 6.826689e+13
1.049422e+04, 6.772341e+13
1.050472e+04, 6.932628e+13
1.051522e+04, 6.753457e+13
1.052574e+04, 6.752200e+13
1.053626e+04, 6.922345e+13
1.054680e+04, 6.831506e+13
1.055734e+04, 6.766161e+13
1.056790e+04, 6.843961e+13
1.057847e+04, 6.826896e+13
1.058905e+04, 6.698770e+13
1.059964e+04, 6.882861e+13
1.061024e+04, 6.708606e+13
1.062085e+04, 6.828720e+13
1.063147e+04, 6.860840e+13
1.064210e+04, 6.811540e+13
1.065274e+04, 6.745899e+13
1.066339e+04, 6.627649e+13
1.067406e+04, 6.699290e+13
1.068473e+04, 6.669034e+13
1.069542e+04, 6.752947e+13
1.070611e+04, 6.678506e+13
1.071682e+04, 6.769101e+13
1.072753e+04, 6.619312e+13
1.073826e+04, 6.672320e+13
1.074900e+04, 6.681217e+13
1.075975e+04, 6.737644e+13
1.077051e+04, 6.742143e+13
1.078128e+04, 6.726039e+13
1.079206e+04, 6.678595e+13
1.080285e+04, 6.672216e+13
1.081366e+04, 6.564363e+13
1.082447e+04, 6.693886e+13
1.083529e+04, 6.606514e+13
1.084613e+04, 6.667516e+13
1.085698e+04, 6.639438e+13
1.086783e+04, 6.632804e+13
1.087870e+04, 6.733533e+13
1.088958e+04, 6.616988e+13
1.090047e+04, 6.735339e+13
1.091137e+04, 6.606491e+13
1.092228e+04, 6.605932e+13
1.093320e+04, 6.674315e+13
1.094414e+04, 6.735881e+13
1.095508e+04, 6.629692e+13
1.096604e+04, 6.608942e+13
1.097700e+04, 6.555786e+13
1.098798e+04, 6.600035e+13
1.099897e+04, 6.639425e+13
1.100997e+04, 6.650205e+13
1.102098e+04, 6.495444e+13
1.103200e+04, 6.582064e+13
1.104303e+04, 6.570200e+13
1.105407e+04, 6.514917e+13
1.106513e+04, 6.543431e+13
1.107619e+04, 6.589630e+13
1.108727e+04, 6.546551e+13
1.109835e+04, 6.526792e+13
1.110945e+04, 6.550380e+13
1.112056e+04, 6.433447e+13
1.113168e+04, 6.537141e+13
1.114281e+04, 6.575916e+13
1.115396e+04, 6.483485e+13
1.116511e+04, 6.503474e+13
1.117628e+04, 6.506591e+13
1.118745e+04, 6.539547e+13
1.119864e+04, 6.462557e+13
1.120984e+04, 6.472969e+13
1.122105e+04, 6.466672e+13
1.123227e+04, 6.522523e+13
1.124350e+04, 6.487689e+13
1.125474e+04, 6.145068e+13
1.126600e+04, 6.511644e+13
1.127727e+04, 6.410120e+13
1.128854e+04, 6.444509e+13
1.129983e+04, 6.364016e+13
1.131113e+04, 6.461122e+13
1.132244e+04, 6.471495e+13
1.133376e+04, 6.440453e+13
1.134510e+04, 6.423150e+13
1.135644e+04, 6.387281e+13
1.136780e+04, 6.404920e+13
1.137917e+04, 6.011428e+13
1.139055e+04, 6.209886e+13
1.140194e+04, 5.904864e+13
1.141334e+04, 6.271684e+13
1.142475e+04, 6.292665e+13
1.143618e+04, 6.389368e+13
1.144761e+04, 6.281164e+13
1.145906e+04, 6.344231e+13
1.147052e+04, 6.329235e+13
1.148199e+04, 6.295723e+13
1.149347e+04, 6.330453e+13
1.150497e+04, 6.347946e+13
1.151647e+04, 6.371163e+13
1.152799e+04, 6.372467e+13
1.153952e+04, 6.328018e+13
1.155106e+04, 6.296237e+13
1.156261e+04, 6.307935e+13
1.157417e+04, 6.314779e+13
1.158574e+04, 6.319460e+13
1.159733e+04, 6.195940e+13
1.160893e+04, 5.985638e+13
1.162054e+04, 6.299147e+13
1.163216e+04, 6.275001e+13
1.164379e+04, 6.113054e+13
1.165543e+04, 6.247210e+13
1.166709e+04, 6.271219e+13
1.167875e+04, 6.245830e+13
1.169043e+04, 5.956916e+13
1.170212e+04, 6.247680e+13
1.171383e+04, 6.228914e+13
1.172554e+04, 6.252855e+13
1.173726e+04, 6.204486e+13
1.174900e+04, 6.210172e+13
1.176075e+04, 6.207406e+13
1.177251e+04, 5.809494e+13
1.178428e+04, 6.009719e+13
1.179607e+04, 6.096838e+13
1.180786e+04, 6.179159e+13
1.181967e+04, 6.178030e+13
1.183149e+04, 5.854064e+13
1.184332e+04, 6.156959e+13
1.185517e+04, 6.126842e+13
1.186702e+04, 6.145518e+13
1.187889e+04, 6.126475e+13
1.189077e+04, 5.661085e+13
1.190266e+04, 6.130285e+13
1.191456e+04, 6.084036e+13
1.192648e+04, 6.122505e+13
1.193840e+04, 6.062140e+13
1.195034e+04, 5.975235e+13
1.196229e+04, 5.957870e+13
1.197425e+04, 5.632991e+13
1.198623e+04, 5.973785e+13
1.199821e+04, 5.970074e+13
1.201021e+04, 5.998780e+13
1.202222e+04, 6.000273e+13
1.203424e+04, 5.930150e+13
1.204628e+04, 5.985340e+13
1.205833e+04, 6.021679e+13
1.207038e+04, 5.956563e+13
1.208245e+04, 5.889856e+13
1.209454e+04, 5.948253e+13
1.210663e+04, 5.913874e+13
1.211874e+04, 5.933810e+13
1.213086e+04, 5.953226e+13
1.214299e+04, 5.968093e+13
1.215513e+04, 5.967387e+13
1.216729e+04, 5.942276e+13
1.217945e+04, 5.960153e+13
1.219163e+04, 5.926405e+13
1.220382e+04, 5.885996e+13
1.221603e+04, 5.909060e+13
1.222824e+04, 5.913807e+13
1.224047e+04, 5.880635e+13
1.225271e+04, 5.910168e+13
1.226497e+04, 5.907821e+13
1.227723e+04, 5.874297e+13
1.228951e+04, 5.888794e+13
1.230180e+04, 5.866285e+13
1.231410e+04, 5.856129e+13
1.232641e+04, 5.817827e+13
1.233874e+04, 5.839054e+13
1.235108e+04, 5.845848e+13
1.236343e+04, 5.812156e+13
1.237579e+04, 5.839681e+13
1.238817e+04, 5.782430e+13
1.240056e+04, 5.794761e+13
1.241296e+04, 5.710283e+13
1.242537e+04, 5.676855e+13
1.243780e+04, 5.594968e+13
1.245023e+04, 5.754250e+13
1.246268e+04, 5.738194e+13
1.247515e+04, 5.702186e+13
1.248762e+04, 5.742939e+13
1.250011e+04, 5.700636e+13
1.251261e+04, 5.709181e+13
1.252512e+04, 5.485563e+13
1.253765e+04, 5.709709e+13
1.255018e+04, 5.672785e+13
1.256273e+04, 5.661376e+13
1.257530e+04, 5.670729e+13
1.258787e+04, 5.683443e+13
1.260046e+04, 5.639985e+13
1.261306e+04, 5.647758e+13
1.262567e+04, 5.656725e+13
1.263830e+04, 5.594014e+13
1.265094e+04, 5.650979e+13
1.266359e+04, 5.632453e+13
1.267625e+04, 5.540525e+13
1.268893e+04, 5.563036e+13
1.270162e+04, 5.611956e+13
1.271432e+04, 5.612807e+13
1.272703e+04, 5.642039e+13
1.273976e+04, 5.542541e+13
1.275250e+04, 5.554628e+13
1.276525e+04, 5.593946e+13
1.277802e+04, 5.570234e+13
1.279080e+04, 5.590448e+13
1.280359e+04, 5.570391e+13
1.281639e+04, 5.466711e+13
1.282921e+04, 5.313928e+13
1.284204e+04, 5.537450e+13
1.285488e+04, 5.452235e+13
1.286773e+04, 5.497330e+13
1.288060e+04, 5.451509e+13
1.289348e+04, 5.469550e+13
1.290637e+04, 5.278284e+13
1.291928e+04, 5.406643e+13
1.293220e+04, 5.432214e+13
1.294513e+04, 5.418100e+13
1.295808e+04, 5.485410e+13
1.297104e+04, 5.469128e+13
1.298401e+04, 5.414585e+13
1.299699e+04, 5.424043e+13
1.300999e+04, 5.381355e+13
1.302300e+04, 5.458989e+13
1.303602e+04, 5.360413e+13
1.304906e+04, 5.428917e+13
1.306211e+04, 5.405483e+13
1.307517e+04, 5.372590e+13
1.308824e+04, 5.374192e+13
1.310133e+04, 5.380919e+13
1.311443e+04, 5.369691e+13
1.312755e+04, 4.934797e+13
1.314067e+04, 5.237505e+13
1.315382e+04, 5.029146e+13
1.316697e+04, 5.360435e+13
1.318014e+04, 5.368156e+13
1.319332e+04, 5.376469e+13
1.320651e+04, 5.293436e+13
1.321972e+04, 5.294807e+13
1.323294e+04, 5.326666e+13
1.324617e+04, 5.314916e+13
1.325941e+04, 5.281710e+13
1.327267e+04, 5.251021e+13
1.328595e+04, 5.222080e+13
1.329923e+04, 5.171034e+13
1.331253e+04, 5.221923e+13
1.332584e+04, 5.064379e+13
1.333917e+04, 5.210664e+13
1.335251e+04, 5.037932e+13
1.336586e+04, 5.111395e+13
1.337923e+04, 5.066615e+13
1.339261e+04, 5.100171e+13
1.340600e+04, 5.103806e+13
1.341941e+04, 5.048450e+13
1.343283e+04, 5.050367e+13
1.344626e+04, 5.055525e+13
1.345970e+04, 5.086952e+13
1.347316e+04, 5.045247e+13
1.348664e+04, 5.065456e+13
1.350012e+04, 4.999505e+13
1.351362e+04, 5.052176e+13
1.352714e+04, 5.043709e+13
1.354066e+04, 5.016010e+13
1.355421e+04, 5.007040e+13
1.356776e+04, 5.034155e+13
1.358133e+04, 5.002034e+13
1.359491e+04, 4.999509e+13
1.360850e+04, 4.976450e+13
1.362211e+04, 4.959245e+13
1.363573e+04, 4.907981e+13
1.364937e+04, 4.934270e+13
1.366302e+04, 4.986371e+13
1.367668e+04, 4.986039e+13
1.369036e+04, 4.950105e+13
1.370405e+04, 4.987118e+13
1.371775e+04, 4.981361e+13
1.373147e+04, 4.968717e+13
1.374520e+04, 4.976974e+13
1.375895e+04, 4.969745e+13
1.377271e+04, 4.954239e+13
1.378648e+04, 4.927270e+13
1.380027e+04, 4.968269e+13
1.381407e+04, 4.965821e+13
1.382788e+04, 4.909211e+13
1.384171e+04, 4.933548e+13
1.385555e+04, 4.856650e+13
1.386941e+04, 4.854769e+13
1.388327e+04, 4.841009e+13
1.389716e+04, 4.856829e+13
1.391106e+04, 4.457500e+13
1.392497e+04, 4.574091e+13
1.393889e+04, 4.598607e+13
1.395283e+04, 4.680035e+13
1.396678e+04, 4.776796e+13
1.398075e+04, 4.615596e+13
1.399473e+04, 4.680163e+13
1.400873e+04, 4.675986e+13
1.402273e+04, 4.729903e+13
1.403676e+04, 4.773767e+13
1.405079e+04, 4.684523e+13
1.406484e+04, 4.702592e+13
1.407891e+04, 4.721264e+13
1.409299e+04, 4.671431e+13
1.410708e+04, 4.680046e+13
1.412119e+04, 4.655798e+13
1.413531e+04, 4.623522e+13
1.414944e+04, 4.705662e+13
1.416359e+04, 4.654122e+13
1.417776e+04, 4.639318e+13
1.419194e+04, 4.586791e+13
1.420613e+04, 4.691394e+13
1.422033e+04, 4.627489e+13
1.423455e+04, 4.586496e+13
1.424879e+04, 4.640095e+13
1.426304e+04, 4.566691e+13
1.427730e+04, 4.609924e+13
1.429158e+04, 4.548547e+13
1.430587e+04, 4.629046e+13
1.432018e+04, 4.630287e+13
1.433450e+04, 4.597573e+13
1.434883e+04, 4.514543e+13
1.436318e+04, 4.533688e+13
1.437754e+04, 4.576948e+13
1.439192e+04, 4.554462e+13
1.440631e+04, 4.499552e+13
1.442072e+04, 4.562318e+13
1.443514e+04, 4.595274e+13
1.444957e+04, 4.511190e+13
1.446402e+04, 4.523217e+13
1.447849e+04, 4.575099e+13
1.449297e+04, 4.548460e+13
1.450746e+04, 4.501389e+13
1.452197e+04, 4.471450e+13
1.453649e+04, 4.552519e+13
1.455102e+04, 4.548538e+13
1.456558e+04, 4.355411e+13
1.458014e+04, 4.546457e+13
1.459472e+04, 4.533644e+13
1.460932e+04, 4.134085e+13
1.462393e+04, 4.202128e+13
1.463855e+04, 4.366484e+13
1.465319e+04, 4.365080e+13
1.466784e+04, 4.324320e+13
1.468251e+04, 4.319800e+13
1.469719e+04, 4.257872e+13
1.471189e+04, 4.322324e+13
1.472660e+04, 4.442791e+13
1.474133e+04, 4.361064e+13
1.475607e+04, 4.327442e+13
1.477082e+04, 4.294342e+13
1.478560e+04, 4.334300e+13
1.480038e+04, 4.238491e+13
1.481518e+04, 4.362636e+13
1.483000e+04, 4.358915e+13
1.484483e+04, 4.392710e+13
1.485967e+04, 4.356185e+13
1.487453e+04, 4.225348e+13
1.488941e+04, 4.126893e+13
1.490429e+04, 4.262306e+13
1.491920e+04, 4.409148e+13
1.493412e+04, 4.355277e+13
1.494905e+04, 4.377923e+13
1.496400e+04, 4.373885e+13
1.497897e+04, 4.388030e+13
1.499394e+04, 4.377286e+13
1.500894e+04, 4.223351e+13
1.502395e+04, 3.953282e+13
1.503897e+04, 4.094493e+13
1.505401e+04, 4.077035e+13
1.506906e+04, 4.295256e+13
1.508413e+04, 4.273180e+13
1.509922e+04, 4.358570e+13
1.511432e+04, 4.312230e+13
1.512943e+04, 4.213810e+13
1.514456e+04, 4.213807e+13
1.515970e+04, 4.248496e+13
1.517486e+04, 4.183578e+13
1.519004e+04, 4.297831e+13
1.520523e+04, 4.295322e+13
1.522043e+04, 4.326392e+13
1.523566e+04, 4.293188e+13
1.525089e+04, 4.298822e+13
1.526614e+04, 4.154286e+13
1.528141e+04, 4.107618e+13
1.529669e+04, 4.255377e+13
1.531199e+04, 4.321344e+13
1.532730e+04, 4.168985e+13
1.534263e+04, 4.205926e+13
1.535797e+04, 4.313429e+13
1.537333e+04, 4.059732e+13
1.538870e+04, 4.051304e+13
1.540409e+04, 4.027025e+13
1.541949e+04, 4.054596e+13
1.543491e+04, 4.018434e+13
1.545035e+04, 4.287416e+13
1.546580e+04, 4.181846e+13
1.548126e+04, 4.199559e+13
1.549674e+04, 4.191399e+13
1.551224e+04, 4.085395e+13
1.552775e+04, 4.281113e+13
1.554328e+04, 3.970498e+13
1.555882e+04, 4.083509e+13
1.557438e+04, 4.035476e+13
1.558996e+04, 4.186343e+13
1.560555e+04, 4.159880e+13
1.562115e+04, 4.158488e+13
1.563677e+04, 4.092253e+13
1.565241e+04, 4.045907e+13
1.566806e+04, 4.214889e+13
1.568373e+04, 4.186740e+13
1.569941e+04, 4.132523e+13
1.571511e+04, 4.084951e+13
1.573083e+04, 3.987098e+13
1.574656e+04, 3.990118e+13
1.576231e+04, 3.920707e+13
1.577807e+04, 3.885188e+13
1.579385e+04, 4.195487e+13
1.580964e+04, 4.198879e+13
1.582545e+04, 4.074507e+13
1.584128e+04, 4.071972e+13
1.585712e+04, 4.197178e+13
1.587297e+04, 4.135025e+13
1.588885e+04, 3.899319e+13
1.590474e+04, 3.910526e+13
1.592064e+04, 4.012192e+13
1.593656e+04, 4.145417e+13
1.595250e+04, 4.184696e+13
1.596845e+04, 4.119139e+13
1.598442e+04, 4.121496e+13
1.600040e+04, 4.165046e+13
1.601640e+04, 4.107674e+13
1.603242e+04, 4.132808e+13
1.604845e+04, 3.976486e+13
1.606450e+04, 3.862644e+13
1.608057e+04, 3.940433e+13
1.609665e+04, 4.147257e+13
1.611274e+04, 4.107154e+13
1.612886e+04, 4.060542e+13
1.614498e+04, 4.027096e+13
1.616113e+04, 3.754056e+13
1.617729e+04, 4.107358e+13
1.619347e+04, 3.791536e+13
1.620966e+04, 3.765852e+13
1.622587e+04, 3.872841e+13
1.624210e+04, 3.920306e+13
1.625834e+04, 3.783216e+13
1.627460e+04, 4.017184e+13
1.629087e+04, 4.102397e+13
1.630716e+04, 4.014762e+13
1.632347e+04, 3.934896e+13
1.633979e+04, 4.017230e+13
1.635613e+04, 3.825897e+13
1.637249e+04, 3.890852e+13
1.638886e+04, 3.950986e+13
1.640525e+04, 3.940241e+13
1.642166e+04, 4.011583e+13
1.643808e+04, 3.986494e+13
1.645452e+04, 3.642230e+13
1.647097e+04, 3.914714e+13
1.648744e+04, 3.938352e+13
1.650393e+04, 3.989688e+13
1.652043e+04, 3.899422e+13
1.653695e+04, 3.748869e+13
1.655349e+04, 3.970632e+13
1.657004e+04, 3.964132e+13
1.658661e+04, 3.866803e+13
1.660320e+04, 3.901189e+13
1.661980e+04, 3.879325e+13
1.663642e+04, 3.894869e+13
1.665306e+04, 3.717441e+13
1.666971e+04, 3.828828e+13
1.668638e+04, 3.849431e+13
1.670307e+04, 3.809674e+13
1.671977e+04, 3.470668e+13
1.673649e+04, 3.737408e+13
1.675323e+04, 3.466033e+13
1.676998e+04, 3.694541e+13
1.678675e+04, 3.853556e+13
1.680354e+04, 3.837671e+13
1.682034e+04, 3.840885e+13
1.683716e+04, 3.806009e+13
1.685400e+04, 3.801160e+13
1.687085e+04, 3.637447e+13
1.688772e+04, 3.615090e+13
1.690461e+04, 3.467628e+13
1.692152e+04, 3.703012e+13
1.693844e+04, 3.739500e+13
1.695538e+04, 3.701675e+13
1.697233e+04, 3.704445e+13
1.698930e+04, 3.724077e+13
1.700629e+04, 3.639965e+13
1.702330e+04, 3.680162e+13
1.704032e+04, 3.687446e+13
1.705736e+04, 3.569141e+13
1.707442e+04, 3.500488e+13
1.709149e+04, 3.577610e+13
1.710859e+04, 3.089200e+13
1.712569e+04, 3.525030e+13
1.714282e+04, 3.589036e+13
1.715996e+04, 3.566527e+13
1.717712e+04, 3.475554e+13
1.719430e+04, 3.478144e+13
1.721149e+04, 3.476076e+13
1.722871e+04, 3.407347e+13
1.724593e+04, 3.377025e+13
1.726318e+04, 3.473061e+13
1.728044e+04, 3.476438e+13
1.729772e+04, 3.470100e+13
1.731502e+04, 3.291349e+13
1.733234e+04, 3.333468e+13
1.734967e+04, 3.257866e+13
1.736702e+04, 3.420117e+13
1.738439e+04, 3.345632e+13
1.740177e+04, 3.363361e+13
1.741917e+04, 3.275564e+13
1.743659e+04, 3.289188e+13
1.745403e+04, 3.359121e+13
1.747148e+04, 3.324557e+13
1.748895e+04, 3.339934e+13
1.750644e+04, 3.243484e+13
1.752395e+04, 3.266955e+13
1.754147e+04, 3.149786e+13
1.755901e+04, 3.156069e+13
1.757657e+04, 3.251387e+13
1.759415e+04, 3.142668e+13
1.761174e+04, 3.121407e+13
1.762936e+04, 3.123171e+13
1.764699e+04, 3.200170e+13
1.766463e+04, 3.154084e+13
1.768230e+04, 3.084944e+13
1.769998e+04, 3.176060e+13
1.771768e+04, 3.076280e+13
1.773540e+04, 3.138620e+13
1.775313e+04, 3.093790e+13
1.777089e+04, 2.973080e+13
1.778866e+04, 3.033911e+13
1.780644e+04, 3.070882e+13
1.782425e+04, 2.897478e+13
1.784208e+04, 3.020603e+13
1.785992e+04, 2.902147e+13
1.787778e+04, 2.969099e+13
1.789566e+04, 3.040338e+13
1.791355e+04, 2.954994e+13
1.793146e+04, 2.982632e+13
1.794940e+04, 2.950524e+13
1.796735e+04, 2.930781e+13
1.798531e+04, 2.962514e+13
1.800330e+04, 2.844813e+13
1.802130e+04, 2.806703e+13
1.803932e+04, 2.783566e+13
1.805736e+04, 2.837683e+13
1.807542e+04, 2.870472e+13
1.809349e+04, 2.903702e+13
1.811159e+04, 2.793784e+13
1.812970e+04, 2.816190e+13
1.814783e+04, 2.841358e+13
1.816598e+04, 2.865443e+13
1.818414e+04, 2.814613e+13
1.820233e+04, 2.745862e+13
1.822053e+04, 2.718509e+13
1.823875e+04, 2.902090e+13
1.825699e+04, 2.718861e+13
1.827525e+04, 2.682511e+13
1.829352e+04, 2.720892e+13
1.831181e+04, 2.765499e+13
1.833013e+04, 2.745575e+13
1.834846e+04, 2.745467e+13
1.836681e+04, 2.727739e+13
1.838517e+04, 2.727312e+13
1.840356e+04, 2.659525e+13
1.842196e+04, 2.635588e+13
1.844038e+04, 2.609517e+13
1.845882e+04, 2.606000e+13
1.847728e+04, 2.392067e+13
1.849576e+04, 2.605914e+13
1.851425e+04, 2.626986e+13
1.853277e+04, 2.557060e+13
1.855130e+04, 2.588259e+13
1.856985e+04, 2.482124e+13
1.858842e+04, 2.489261e+13
1.860701e+04, 2.509797e+13
1.862562e+04, 2.563161e+13
1.864424e+04, 2.541983e+13
1.866289e+04, 2.560152e+13
1.868155e+04, 2.575112e+13
1.870023e+04, 2.595289e+13
1.871893e+04, 2.513100e+13
1.873765e+04, 2.439913e+13
1.875639e+04, 2.546143e+13
1.877515e+04, 2.478916e+13
1.879392e+04, 2.484316e+13
1.881272e+04, 2.527926e+13
1.883153e+04, 2.590295e+13
1.885036e+04, 2.412580e+13
1.886921e+04, 2.469321e+13
1.888808e+04, 2.495717e+13
1.890697e+04, 2.484355e+13
1.892587e+04, 2.384298e+13
1.894480e+04, 2.477217e+13
1.896374e+04, 2.502664e+13
1.898271e+04, 2.406336e+13
1.900169e+04, 2.495392e+13
1.902069e+04, 2.457308e+13
1.903971e+04, 2.430736e+13
1.905875e+04, 2.338787e+13
1.907781e+04, 2.432043e+13
1.909689e+04, 2.404006e+13
1.911599e+04, 2.359058e+13
1.913510e+04, 2.469207e+13
1.915424e+04, 2.411721e+13
1.917339e+04, 2.401898e+13
1.919257e+04, 2.425579e+13
1.921176e+04, 2.408721e+13
1.923097e+04, 2.389293e+13
1.925020e+04, 2.384479e+13
1.926945e+04, 2.363447e+13
1.928872e+04, 2.326971e+13
1.930801e+04, 1.922950e+13
1.932732e+04, 2.157352e+13
1.934664e+04, 2.283451e+13
1.936599e+04, 2.346347e+13
1.938536e+04, 2.317333e+13
1.940474e+04, 2.279546e+13
1.942415e+04, 2.273416e+13
1.944357e+04, 2.077979e+13
1.946301e+04, 1.767989e+13
1.948248e+04, 2.155464e+13
1.950196e+04, 1.999619e+13
1.952146e+04, 2.052244e+13
1.954098e+04, 2.250429e+13
1.956052e+04, 2.240269e+13
1.958009e+04, 2.318465e+13
1.959967e+04, 2.257676e+13
1.961927e+04, 2.190066e+13
1.963888e+04, 2.184315e+13
1.965852e+04, 2.270265e+13
1.967818e+04, 2.259284e+13
1.969786e+04, 2.249365e+13
1.971756e+04, 2.211210e+13
1.973728e+04, 2.146159e+13
1.975701e+04, 2.026649e+13
1.977677e+04, 1.626172e+13
1.979655e+04, 1.883972e+13
1.981634e+04, 2.002080e+13
1.983616e+04, 2.117333e+13
1.985600e+04, 1.878638e+13
1.987585e+04, 1.864354e+13
1.989573e+04, 2.080526e+13
1.991562e+04, 1.994752e+13
1.993554e+04, 1.992155e+13
1.995547e+04, 2.087634e+13
1.997543e+04, 2.027442e+13
1.999541e+04, 2.109327e+13
2.001540e+04, 2.104486e+13
2.003542e+04, 2.119421e+13
2.005545e+04, 2.115715e+13
2.007551e+04, 2.130361e+13
2.009558e+04, 2.064228e+13
2.011568e+04, 2.061622e+13
2.013579e+04, 2.066708e+13
2.015593e+04, 2.073917e+13
2.017609e+04, 2.059988e+13
2.019626e+04, 1.997496e+13
2.021646e+04, 2.072528e+13
2.023667e+04, 2.058745e+13
2.025691e+04, 2.038906e+13
2.027717e+04, 2.001934e+13
2.029744e+04, 1.988975e+13
2.031774e+04, 2.033591e+13
2.033806e+04, 2.025273e+13
2.035840e+04, 2.000359e+13
2.037876e+04, 2.020157e+13
2.039914e+04, 2.002095e+13
2.041953e+04, 2.015827e+13
2.043995e+04, 1.977848e+13
2.046039e+04, 1.979483e+13
2.048085e+04, 1.962170e+13
2.050134e+04, 1.954131e+13
2.052184e+04, 1.973932e+13
2.054236e+04, 1.925438e+13
2.056290e+04, 1.937365e+13
2.058346e+04, 1.961700e+13
2.060405e+04, 1.944200e+13
2.062465e+04, 1.945488e+13
2.064528e+04, 1.890325e+13
2.066592e+04, 1.928669e+13
2.068659e+04, 1.920946e+13
2.070727e+04, 1.941024e+13
2.072798e+04, 1.897868e+13
2.074871e+04, 1.909385e+13
2.076946e+04, 1.907705e+13
2.079023e+04, 1.910925e+13
2.081102e+04, 1.886255e+13
2.083183e+04, 1.886938e+13
2.085266e+04, 1.865722e+13
2.087351e+04, 1.865460e+13
2.089439e+04, 1.854899e+13
2.091528e+04, 1.894628e+13
2.093620e+04, 1.866449e+13
2.095713e+04, 1.848230e+13
2.097809e+04, 1.849591e+13
2.099907e+04, 1.842796e+13
2.102007e+04, 1.843353e+13
2.104109e+04, 1.858003e+13
2.106213e+04, 1.830916e+13
2.108319e+04, 1.816536e+13
2.110427e+04, 1.813430e+13
2.112538e+04, 1.810457e+13
2.114650e+04, 1.836346e+13
2.116765e+04, 1.757833e+13
2.118882e+04, 1.808651e+13
2.121001e+04, 1.798518e+13
2.123122e+04, 1.810348e+13
2.125245e+04, 1.799288e+13
2.127370e+04, 1.794409e+13
2.129497e+04, 1.788218e+13
2.131627e+04, 1.795346e+13
2.133758e+04, 1.792566e+13
2.135892e+04, 1.785775e+13
2.138028e+04, 1.763232e+13
2.140166e+04, 1.762446e+13
2.142306e+04, 1.767497e+13
2.144449e+04, 1.793633e+13
2.146593e+04, 1.769862e+13
2.148740e+04, 1.757230e+13
2.150888e+04, 1.755416e+13
2.153039e+04, 1.738541e+13
2.155192e+04, 1.749234e+13
2.157347e+04, 1.749833e+13
2.159505e+04, 1.735465e+13
2.161664e+04, 1.753485e+13
2.163826e+04, 1.725015e+13
2.165990e+04, 1.734165e+13
2.168156e+04, 1.737512e+13
2.170324e+04, 1.729207e+13
2.172494e+04, 1.723915e+13
2.174667e+04, 1.721359e+13
2.176841e+04, 1.709885e+13
2.179018e+04, 1.673366e+13
2.181197e+04, 1.694017e+13
2.183378e+04, 1.689490e+13
2.185562e+04, 1.699500e+13
2.187747e+04, 1.692854e+13
2.189935e+04, 1.660197e+13
2.192125e+04, 1.688808e+13
2.194317e+04, 1.688513e+13
2.196512e+04, 1.678167e+13
2.198708e+04, 1.668157e+13
2.200907e+04, 1.657951e+13
2.203108e+04, 1.654240e+13
2.205311e+04, 1.554010e+13
2.207516e+04, 1.603058e+13
2.209724e+04, 1.566019e+13
2.211933e+04, 1.647412e+13
2.214145e+04, 1.648900e+13
2.216359e+04, 1.645266e+13
2.218576e+04, 1.643446e+13
2.220794e+04, 1.614909e+13
2.223015e+04, 1.618413e+13
2.225238e+04, 1.628609e+13
2.227463e+04, 1.586265e+13
2.229691e+04, 1.612297e+13
2.231921e+04, 1.608314e+13
2.234152e+04, 1.600915e+13
2.236387e+04, 1.608537e+13
2.238623e+04, 1.593991e+13
2.240862e+04, 1.589033e+13
2.243102e+04, 1.597177e+13
2.245346e+04, 1.588200e+13
2.247591e+04, 1.584192e+13
2.249839e+04, 1.585836e+13
2.252088e+04, 1.583650e+13
2.254340e+04, 1.573677e+13
2.256595e+04, 1.575734e+13
2.258851e+04, 1.563596e+13
2.261110e+04, 1.488799e+13
2.263371e+04, 1.446219e+13
2.265635e+04, 1.440101e+13
2.267900e+04, 1.539354e+13
2.270168e+04, 1.532875e+13
2.272438e+04, 1.536625e+13
2.274711e+04, 1.539181e+13
2.276986e+04, 1.535193e+13
2.279263e+04, 1.526366e+13
2.281542e+04, 1.513671e+13
2.283823e+04, 1.495549e+13
2.286107e+04, 1.515510e+13
2.288393e+04, 1.508403e+13
2.290682e+04, 1.508632e+13
2.292972e+04, 1.414328e+13
2.295265e+04, 1.356586e+13
2.297561e+04, 1.388408e+13
2.299858e+04, 1.426181e+13
2.302158e+04, 1.431903e+13
2.304460e+04, 1.434073e+13
2.306765e+04, 1.394777e+13
2.309071e+04, 1.429828e+13
2.311380e+04, 1.420266e+13
2.313692e+04, 1.426589e+13
2.316006e+04, 1.414323e+13
2.318322e+04, 1.416142e+13
2.320640e+04, 1.417946e+13
2.322961e+04, 1.258095e+13
2.325283e+04, 1.303319e+13
2.327609e+04, 1.342842e+13
2.329936e+04, 1.337938e+13
2.332266e+04, 1.358375e+13
2.334599e+04, 1.307877e+13
2.336933e+04, 1.327052e+13
2.339270e+04, 1.285686e+13
2.341609e+04, 1.351900e+13
2.343951e+04, 1.339477e+13
2.346295e+04, 1.348632e+13
2.348641e+04, 1.338838e+13
2.350990e+04, 1.339911e+13
2.353341e+04, 1.164470e+13
2.355694e+04, 1.265049e+13
2.358050e+04, 1.268838e+13
2.360408e+04, 1.277318e+13
2.362768e+04, 1.281398e+13
2.365131e+04, 1.299801e+13
2.367496e+04, 1.283511e+13
2.369864e+04, 1.281898e+13
2.372234e+04, 1.286766e+13
2.374606e+04, 1.276728e+13
2.376980e+04, 1.289575e+13
2.379357e+04, 1.273732e+13
2.381737e+04, 1.249115e+13
2.384119e+04, 1.127135e+13
2.386503e+04, 1.185967e+13
2.388889e+04, 1.205857e+13
2.391278e+04, 1.207524e+13
2.393669e+04, 1.223066e+13
2.396063e+04, 1.200567e+13
2.398459e+04, 1.210969e+13
2.400858e+04, 1.205401e+13
2.403258e+04, 1.188029e+13
2.405662e+04, 1.197461e+13
2.408067e+04, 1.168165e+13
2.410475e+04, 1.174754e+13
2.412886e+04, 1.164623e+13
2.415299e+04, 1.095061e+13
2.417714e+04, 1.128405e+13
2.420132e+04, 1.138203e+13
2.422552e+04, 1.108759e+13
2.424974e+04, 1.145467e+13
2.427399e+04, 1.107625e+13
2.429827e+04, 1.135891e+13
2.432257e+04, 1.118025e+13
2.434689e+04, 1.101196e+13
2.437124e+04, 1.077958e+13
2.439561e+04, 1.130894e+13
2.442000e+04, 1.088422e+13
2.444442e+04, 1.079248e+13
2.446887e+04, 1.042777e+13
2.449334e+04, 1.051030e+13
2.451783e+04, 1.051852e+13
2.454235e+04, 1.011131e+13
2.456689e+04, 1.066818e+13
2.459146e+04, 1.061147e+13
2.461605e+04, 9.948984e+12
2.464066e+04, 1.055418e+13
2.466530e+04, 1.024915e+13
2.468997e+04, 1.022425e+13
2.471466e+04, 1.031619e+13
2.473937e+04, 9.852558e+12
2.476411e+04, 1.015249e+13
2.478888e+04, 9.905995e+12
2.481367e+04, 9.479738e+12
2.483848e+04, 1.000748e+13
2.486332e+04, 8.766664e+12
2.488818e+04, 8.740393e+12
2.491307e+04, 8.679014e+12
2.493798e+04, 8.890262e+12
2.496292e+04, 8.983385e+12
2.498788e+04, 8.696811e+12
2.501287e+04, 8.897642e+12
2.503788e+04, 8.658691e+12
2.506292e+04, 8.555840e+12
2.508799e+04, 8.984926e+12
2.511307e+04, 8.728581e+12
2.513819e+04, 8.637596e+12
2.516332e+04, 8.676285e+12
2.518849e+04, 8.729131e+12
2.521368e+04, 8.781932e+12
2.523889e+04, 8.390013e+12
2.526413e+04, 8.354557e+12
2.528939e+04, 8.377223e+12
2.531468e+04, 8.787303e+12
2.534000e+04, 8.491534e+12
2.536534e+04, 8.290172e+12
2.539070e+04, 8.553777e+12
2.541609e+04, 8.524011e+12
2.544151e+04, 8.473058e+12
2.546695e+04, 8.549375e+12
2.549242e+04, 8.451887e+12
2.551791e+04, 8.430322e+12
2.554343e+04, 8.527481e+12
2.556897e+04, 8.517357e+12
2.559454e+04, 8.576237e+12
2.562014e+04, 8.247942e+12
2.564576e+04, 8.406924e+12
2.567140e+04, 8.486449e+12
2.569707e+04, 8.295659e+12
2.572277e+04, 8.770032e+12
2.574849e+04, 8.261828e+12
2.577424e+04, 8.097968e+12
2.580002e+04, 8.556053e+12
2.582582e+04, 8.273635e+12
2.585164e+04, 8.684008e+12
2.587749e+04, 8.489003e+12
2.590337e+04, 8.420987e+12
2.592927e+04, 8.626396e+12
2.595520e+04, 8.299716e+12
2.598116e+04, 8.301808e+12
2.600714e+04, 8.623815e+12
2.603315e+04, 8.524381e+12
2.605918e+04, 8.405999e+12
2.608524e+04, 8.063316e+12
2.611132e+04, 8.792601e+12
2.613744e+04, 8.480602e+12
2.616357e+04, 8.559000e+12
2.618974e+04, 7.922122e+12
2.621593e+04, 7.849620e+12
2.624214e+04, 7.975202e+12
2.626838e+04, 8.055307e+12
2.629465e+04, 8.059920e+12
2.632095e+04, 8.172916e+12
2.634727e+04, 7.892119e+12
2.637362e+04, 8.033400e+12
2.639999e+04, 7.821024e+12
2.642639e+04, 7.924568e+12
2.645282e+04, 7.952746e+12
2.647927e+04, 8.022789e+12
2.650575e+04, 7.856992e+12
2.653225e+04, 7.789464e+12
2.655879e+04, 7.516278e+12
2.658534e+04, 7.960756e+12
2.661193e+04, 7.695646e+12
2.663854e+04, 7.820410e+12
2.666518e+04, 7.867719e+12
2.669185e+04, 7.856508e+12
2.671854e+04, 7.834059e+12
2.674526e+04, 7.834389e+12
2.677200e+04, 7.459085e+12
2.679877e+04, 7.821541e+12
2.682557e+04, 7.614978e+12
2.685240e+04, 7.619773e+12
2.687925e+04, 7.835623e+12
2.690613e+04, 7.776245e+12
2.693303e+04, 7.454776e+12
2.695997e+04, 7.258303e+12
2.698693e+04, 7.696596e+12
2.701391e+04, 7.586650e+12
2.704093e+04, 7.274774e+12
2.706797e+04, 7.472038e+12
2.709504e+04, 7.601379e+12
2.712213e+04, 7.224675e+12
2.714925e+04, 7.388208e+12
2.717640e+04, 7.215415e+12
2.720358e+04, 7.479720e+12
2.723078e+04, 7.276366e+12
2.725801e+04, 7.328095e+12
2.728527e+04, 6.974161e+12
2.731256e+04, 7.406823e+12
2.733987e+04, 7.413085e+12
2.736721e+04, 6.888435e+12
2.739458e+04, 6.836721e+12
2.742197e+04, 7.303019e+12
2.744939e+04, 7.156166e+12
2.747684e+04, 7.119792e+12
2.750432e+04, 6.911234e+12
2.753182e+04, 7.040241e+12
2.755936e+04, 6.849563e+12
2.758692e+04, 7.072987e+12
2.761450e+04, 7.039536e+12
2.764212e+04, 6.983435e+12
2.766976e+04, 6.481987e+12
2.769743e+04, 6.738726e+12
2.772513e+04, 6.844418e+12
2.775285e+04, 6.980788e+12
2.778060e+04, 6.776989e+12
2.780839e+04, 6.782720e+12
2.783619e+04, 6.796464e+12
2.786403e+04, 6.402704e+12
2.789189e+04, 6.461749e+12
2.791979e+04, 6.357391e+12
2.794771e+04, 6.686290e+12
2.797565e+04, 6.539910e+12
2.800363e+04, 6.513450e+12
2.803163e+04, 6.046543e+12
2.805966e+04, 6.164595e+12
2.808772e+04, 6.434221e+12
2.811581e+04, 6.434859e+12
2.814393e+04, 6.360395e+12
2.817207e+04, 6.290158e+12
2.820024e+04, 5.957541e+12
2.822844e+04, 6.303336e+12
2.825667e+04, 6.257430e+12
2.828493e+04, 6.352593e+12
2.831321e+04, 6.335596e+12
2.834153e+04, 6.213718e+12
2.836987e+04, 5.981892e+12
2.839824e+04, 6.309700e+12
2.842664e+04, 6.173915e+12
2.845506e+04, 6.271423e+12
2.848352e+04, 6.168560e+12
2.851200e+04, 6.031523e+12
2.854051e+04, 5.777693e+12
2.856905e+04, 5.972234e+12
2.859762e+04, 6.433348e+12
2.862622e+04, 6.151497e+12
2.865485e+04, 6.064019e+12
2.868350e+04, 5.917912e+12
2.871219e+04, 5.833040e+12
2.874090e+04, 5.764648e+12
2.876964e+04, 6.233519e+12
2.879841e+04, 6.149102e+12
2.882721e+04, 6.100754e+12
2.885603e+04, 5.788714e+12
2.888489e+04, 5.764226e+12
2.891377e+04, 5.691092e+12
2.894269e+04, 6.122679e+12
2.897163e+04, 6.112145e+12
2.900060e+04, 5.570489e+12
2.902960e+04, 5.771620e+12
2.905863e+04, 5.890364e+12
2.908769e+04, 5.275465e+12
2.911678e+04, 5.810449e+12
2.914590e+04, 5.933479e+12
2.917504e+04, 5.777155e+12
2.920422e+04, 5.618965e+12
2.923342e+04, 5.410289e+12
2.926265e+04, 5.607817e+12
2.929192e+04, 5.231830e+12
2.932121e+04, 5.784429e+12
2.935053e+04, 5.533108e+12
2.937988e+04, 5.529017e+12
2.940926e+04, 5.352246e+12
2.943867e+04, 5.273613e+12
2.946811e+04, 5.316160e+12
2.949758e+04, 5.263251e+12
2.952707e+04, 5.539677e+12
2.955660e+04, 5.300162e+12
2.958616e+04, 5.522295e+12
2.961574e+04, 5.186227e+12
2.964536e+04, 5.352244e+12
2.967501e+04, 5.145669e+12
2.970468e+04, 5.147302e+12
2.973439e+04, 5.365660e+12
2.976412e+04, 5.470675e+12
2.979388e+04, 5.335613e+12
2.982368e+04, 5.169965e+12
2.985350e+04, 5.290545e+12
2.988335e+04, 4.857652e+12
2.991324e+04, 5.168686e+12
2.994315e+04, 5.355902e+12
2.997309e+04, 5.261996e+12
3.000307e+04, 5.108866e+12
3.003307e+04, 5.050020e+12
3.006310e+04, 5.036054e+12
3.009317e+04, 4.610238e+12
3.012326e+04, 5.086372e+12
3.015338e+04, 5.356478e+12
3.018354e+04, 5.216023e+12
3.021372e+04, 4.975575e+12
3.024393e+04, 5.001760e+12
3.027418e+04, 4.900194e+12
3.030445e+04, 4.876384e+12
3.033476e+04, 5.140327e+12
3.036509e+04, 5.058627e+12
3.039546e+04, 5.057142e+12
3.042585e+04, 4.738477e+12
3.045628e+04, 4.812580e+12
3.048673e+04, 4.586669e+12
3.051722e+04, 4.734720e+12
3.054774e+04, 5.121602e+12
3.057829e+04, 4.922538e+12
3.060886e+04, 4.953431e+12
3.063947e+04, 4.871239e+12
3.067011e+04, 4.831379e+12
3.070078e+04, 4.671226e+12
3.073148e+04, 4.614622e+12
3.076221e+04, 4.831268e+12
3.079298e+04, 4.874738e+12
3.082377e+04, 4.777234e+12
3.085459e+04, 4.544642e+12
3.088545e+04, 4.600501e+12
3.091633e+04, 4.497566e+12
3.094725e+04, 4.603602e+12
3.097820e+04, 4.615999e+12
3.100918e+04, 4.859393e+12
3.104018e+04, 4.792306e+12
3.107122e+04, 4.549227e+12
3.110230e+04, 4.600806e+12
3.113340e+04, 4.517780e+12
3.116453e+04, 4.493878e+12
3.119570e+04, 4.542002e+12
3.122689e+04, 4.666727e+12
3.125812e+04, 4.672007e+12
3.128938e+04, 4.418387e+12
3.132067e+04, 4.222434e+12
3.135199e+04, 4.346643e+12
3.138334e+04, 4.553733e+12
3.141472e+04, 4.572948e+12
3.144614e+04, 4.423825e+12
3.147758e+04, 4.474012e+12
3.150906e+04, 4.521655e+12
3.154057e+04, 4.373633e+12
3.157211e+04, 4.220297e+12
3.160368e+04, 4.508904e+12
3.163529e+04, 4.500902e+12
3.166692e+04, 4.371800e+12
3.169859e+04, 4.448239e+12
3.173029e+04, 4.360641e+12
3.176202e+04, 4.353257e+12
3.179378e+04, 4.075967e+12
3.182557e+04, 4.228475e+12
3.185740e+04, 4.349681e+12
3.188926e+04, 4.310774e+12
3.192115e+04, 4.297968e+12
3.195307e+04, 4.294802e+12
3.198502e+04, 4.170594e+12
3.201700e+04, 4.122944e+12
3.204902e+04, 4.268244e+12
3.208107e+04, 4.382300e+12
3.211315e+04, 4.327466e+12
3.214526e+04, 4.289957e+12
3.217741e+04, 4.178375e+12
3.220959e+04, 4.198965e+12
3.224180e+04, 4.212321e+12
3.227404e+04, 4.052629e+12
3.230631e+04, 4.200731e+12
3.233862e+04, 4.095790e+12
3.237096e+04, 4.081982e+12
3.240333e+04, 4.085982e+12
3.243573e+04, 4.022238e+12
3.246817e+04, 4.085835e+12
3.250064e+04, 4.110344e+12
3.253314e+04, 4.122052e+12
3.256567e+04, 4.192915e+12
3.259824e+04, 4.175460e+12
3.263083e+04, 4.101380e+12
3.266346e+04, 4.061824e+12
3.269613e+04, 3.999107e+12
3.272882e+04, 4.126926e+12
3.276155e+04, 3.960713e+12
3.279431e+04, 4.013990e+12
3.282711e+04, 3.890908e+12
3.285994e+04, 3.817712e+12
3.289280e+04, 3.984336e+12
3.292569e+04, 3.858755e+12
3.295861e+04, 3.961341e+12
3.299157e+04, 3.974567e+12
3.302456e+04, 4.038663e+12
3.305759e+04, 3.980566e+12
3.309065e+04, 3.902298e+12
3.312374e+04, 3.965044e+12
3.315686e+04, 3.859845e+12
3.319002e+04, 3.833358e+12
3.322321e+04, 3.932452e+12
3.325643e+04, 3.887257e+12
3.328969e+04, 3.996398e+12
3.332298e+04, 3.915741e+12
3.335630e+04, 3.799730e+12
3.338966e+04, 3.553601e+12
3.342305e+04, 3.724115e+12
3.345647e+04, 3.796297e+12
3.348993e+04, 3.830074e+12
3.352342e+04, 3.858670e+12
3.355694e+04, 3.725054e+12
3.359050e+04, 3.818709e+12
3.362409e+04, 3.813027e+12
3.365771e+04, 3.743958e+12
3.369137e+04, 3.808359e+12
3.372506e+04, 3.781490e+12
3.375878e+04, 3.735685e+12
3.379254e+04, 3.750544e+12
3.382634e+04, 3.742684e+12
3.386016e+04, 3.740142e+12
3.389402e+04, 3.773852e+12
3.392792e+04, 3.581917e+12
3.396184e+04, 3.381478e+12
3.399581e+04, 3.626147e+12
3.402980e+04, 3.679466e+12
3.406383e+04, 3.640178e+12
3.409790e+04, 3.598422e+12
3.413199e+04, 3.580716e+12
3.416613e+04, 3.599930e+12
3.420029e+04, 3.635443e+12
3.423449e+04, 3.658029e+12
3.426873e+04, 3.653718e+12
3.430300e+04, 3.625153e+12
3.433730e+04, 3.629904e+12
3.437164e+04, 3.609202e+12
3.440601e+04, 3.585590e+12
3.444041e+04, 3.532340e+12
3.447485e+04, 3.518853e+12
3.450933e+04, 3.453276e+12
3.454384e+04, 3.428072e+12
3.457838e+04, 3.297486e+12
3.461296e+04, 3.452942e+12
3.464757e+04, 3.457131e+12
3.468222e+04, 3.555853e+12
3.471690e+04, 3.537543e+12
3.475162e+04, 3.502011e+12
3.478637e+04, 3.518534e+12
3.482116e+04, 3.451409e+12
3.485598e+04, 3.463321e+12
3.489083e+04, 3.442616e+12
3.492573e+04, 3.408226e+12
3.496065e+04, 3.479059e+12
3.499561e+04, 3.385534e+12
3.503061e+04, 3.450351e+12
3.506564e+04, 3.364294e+12
3.510070e+04, 3.289259e+12
3.513580e+04, 3.288389e+12
3.517094e+04, 3.340382e+12
3.520611e+04, 3.105444e+12
3.524132e+04, 3.265178e+12
3.527656e+04, 3.343494e+12
3.531184e+04, 3.386921e+12
3.534715e+04, 3.357433e+12
3.538249e+04, 3.271310e+12
3.541788e+04, 3.327280e+12
3.545329e+04, 3.279942e+12
3.548875e+04, 3.273578e+12
3.552424e+04, 3.261796e+12
3.555976e+04, 3.271507e+12
3.559532e+04, 3.260246e+12
3.563092e+04, 3.276750e+12
3.566655e+04, 3.258260e+12
3.570221e+04, 3.048162e+12
3.573792e+04, 3.105394e+12
3.577365e+04, 3.132961e+12
3.580943e+04, 3.224953e+12
3.584524e+04, 3.203134e+12
3.588108e+04, 3.008797e+12
3.591696e+04, 3.092230e+12
3.595288e+04, 3.184104e+12
3.598883e+04, 3.125463e+12
3.602482e+04, 3.125813e+12
3.606085e+04, 3.171061e+12
3.609691e+04, 3.158906e+12
3.613300e+04, 3.124660e+12
3.616914e+04, 3.111909e+12
3.620531e+04, 3.112480e+12
3.624151e+04, 3.095735e+12
3.627775e+04, 3.111883e+12
3.631403e+04, 3.024737e+12
3.635035e+04, 2.949120e+12
3.638670e+04, 2.876721e+12
3.642308e+04, 3.062487e+12
3.645951e+04, 3.044352e+12
3.649596e+04, 3.013662e+12
3.653246e+04, 3.002399e+12
3.656899e+04, 2.939936e+12
3.660556e+04, 2.891758e+12
3.664217e+04, 2.926736e+12
3.667881e+04, 3.002460e+12
3.671549e+04, 2.997797e+12
3.675220e+04, 2.971253e+12
3.678896e+04, 2.941525e+12
3.682575e+04, 2.963655e+12
3.686257e+04, 2.943241e+12
3.689943e+04, 2.939949e+12
3.693633e+04, 2.892633e+12
3.697327e+04, 2.761559e+12
3.701024e+04, 2.818198e+12
3.704725e+04, 2.808495e+12
3.708430e+04, 2.729940e+12
3.712138e+04, 2.881773e+12
3.715851e+04, 2.854717e+12
3.719566e+04, 2.866770e+12
3.723286e+04, 2.859069e+12
3.727009e+04, 2.861473e+12
3.730736e+04, 2.841496e+12
3.734467e+04, 2.646614e+12
3.738202e+04, 2.752856e+12
3.741940e+04, 2.803338e+12
3.745682e+04, 2.803475e+12
3.749427e+04, 2.811500e+12
3.753177e+04, 2.800652e+12
3.756930e+04, 2.781290e+12
3.760687e+04, 2.759642e+12
3.764448e+04, 2.685693e+12
3.768212e+04, 2.689100e+12
3.771980e+04, 2.702472e+12
3.775752e+04, 2.659308e+12
3.779528e+04, 2.646860e+12
3.783307e+04, 2.684288e+12
3.787091e+04, 2.721556e+12
3.790878e+04, 2.711880e+12
3.794669e+04, 2.702423e+12
3.798463e+04, 2.680232e+12
3.802262e+04, 2.695528e+12
3.806064e+04, 2.648600e+12
3.809870e+04, 2.584592e+12
3.813680e+04, 2.509298e+12
3.817494e+04, 2.640625e+12
3.821311e+04, 2.641263e+12
3.825133e+04, 2.624215e+12
3.828958e+04, 2.610817e+12
3.832787e+04, 2.556388e+12
3.836619e+04, 2.512010e+12
3.840456e+04, 2.530991e+12
3.844297e+04, 2.591999e+12
3.848141e+04, 2.542729e+12
3.851989e+04, 2.516668e+12
3.855841e+04, 2.493777e+12
3.859697e+04, 2.520362e+12
3.863556e+04, 2.511537e+12
3.867420e+04, 2.458936e+12
3.871287e+04, 2.501106e+12
3.875159e+04, 2.508300e+12
3.879034e+04, 2.502951e+12
3.882913e+04, 2.512754e+12
3.886796e+04, 2.474756e+12
3.890683e+04, 2.463091e+12
3.894573e+04, 2.341248e+12
3.898468e+04, 2.414399e+12
3.902366e+04, 2.448719e+12
3.906269e+04, 2.400715e+12
3.910175e+04, 2.328544e+12
3.914085e+04, 2.378407e+12
3.917999e+04, 2.427397e+12
3.921917e+04, 2.408153e+12
3.925839e+04, 2.410477e+12
3.929765e+04, 2.380932e+12
3.933695e+04, 2.326407e+12
3.937628e+04, 2.319202e+12
3.941566e+04, 2.372803e+12
3.945508e+04, 2.365788e+12
3.949453e+04, 2.344392e+12
3.953403e+04, 2.315649e+12
3.957356e+04, 2.330681e+12
3.961313e+04, 2.332170e+12
3.965275e+04, 2.317395e+12
3.969240e+04, 2.309170e+12
3.973209e+04, 2.297375e+12
3.977182e+04, 2.261762e+12
3.981160e+04, 2.152213e+12
3.985141e+04, 2.174378e+12
3.989126e+04, 2.211508e+12
3.993115e+04, 2.228384e+12
3.997108e+04, 2.239708e+12
4.001105e+04, 2.239356e+12
4.005106e+04, 2.222546e+12
4.009111e+04, 2.217164e+12
4.013121e+04, 2.211759e+12
4.017134e+04, 2.161319e+12
4.021151e+04, 2.103589e+12
4.025172e+04, 2.181543e+12
4.029197e+04, 2.179700e+12
4.033226e+04, 2.175092e+12
4.037260e+04, 2.171605e+12
4.041297e+04, 2.137413e+12
4.045338e+04, 2.049859e+12
4.049383e+04, 2.115103e+12
4.053433e+04, 2.104021e+12
4.057486e+04, 2.097143e+12
4.061544e+04, 2.083674e+12
4.065605e+04, 2.099483e+12
4.069671e+04, 2.020533e+12
4.073741e+04, 2.008802e+12
4.077814e+04, 2.042114e+12
4.081892e+04, 2.056116e+12
4.085974e+04, 2.015324e+12
4.090060e+04, 2.028375e+12
4.094150e+04, 2.034634e+12
4.098244e+04, 2.028702e+12
4.102342e+04, 2.030948e+12
4.106445e+04, 2.007612e+12
4.110551e+04, 1.933148e+12
4.114662e+04, 1.998211e+12
4.118776e+04, 1.988571e+12
4.122895e+04, 1.982689e+12
4.127018e+04, 1.965606e+12
4.131145e+04, 1.949958e+12
4.135276e+04, 1.951913e+12
4.139412e+04, 1.917653e+12
4.143551e+04, 1.944061e+12
4.147695e+04, 1.947399e+12
4.151842e+04, 1.946298e+12
4.155994e+04, 1.908077e+12
4.160150e+04, 1.873906e+12
4.164310e+04, 1.896062e+12
4.168475e+04, 1.817128e+12
4.172643e+04, 1.868448e+12
4.176816e+04, 1.891631e+12
4.180992e+04, 1.888851e+12
4.185173e+04, 1.848175e+12
4.189359e+04, 1.871958e+12
4.193548e+04, 1.850378e+12
4.197742e+04, 1.857888e+12
4.201939e+04, 1.802141e+12
4.206141e+04, 1.815101e+12
4.210347e+04, 1.815850e+12
4.214558e+04, 1.812431e+12
4.218772e+04, 1.803333e+12
4.222991e+04, 1.792669e+12
4.227214e+04, 1.808204e+12
4.231441e+04, 1.813864e+12
4.235673e+04, 1.808836e+12
4.239908e+04, 1.794067e+12
4.244148e+04, 1.785075e+12
4.248392e+04, 1.752677e+12
4.252641e+04, 1.717100e+12
4.256893e+04, 1.758816e+12
4.261150e+04, 1.750204e+12
4.265411e+04, 1.746589e+12
4.269677e+04, 1.708274e+12
4.273947e+04, 1.695706e+12
4.278221e+04, 1.745248e+12
4.282499e+04, 1.725852e+12
4.286781e+04, 1.729351e+12
4.291068e+04, 1.714822e+12
4.295359e+04, 1.586231e+12
4.299654e+04, 1.596076e+12
4.303954e+04, 1.581284e+12
4.308258e+04, 1.622477e+12
4.312566e+04, 1.618111e+12
4.316879e+04, 1.620932e+12
4.321196e+04, 1.623765e+12
4.325517e+04, 1.611531e+12
4.329842e+04, 1.603582e+12
4.334172e+04, 1.617147e+12
4.338506e+04, 1.587486e+12
4.342845e+04, 1.575920e+12
4.347188e+04, 1.575417e+12
4.351535e+04, 1.493672e+12
4.355887e+04, 1.506166e+12
4.360242e+04, 1.533508e+12
4.364603e+04, 1.530957e+12
4.368967e+04, 1.493775e+12
4.373336e+04, 1.507216e+12
4.377710e+04, 1.489040e+12
4.382087e+04, 1.488675e+12
4.386469e+04, 1.495350e+12
4.390856e+04, 1.517136e+12
4.395247e+04, 1.472128e+12
4.399642e+04, 1.487190e+12
4.404042e+04, 1.451670e+12
4.408446e+04, 1.380821e+12
4.412854e+04, 1.413267e+12
4.417267e+04, 1.416791e+12
4.421684e+04, 1.427431e+12
4.426106e+04, 1.415913e+12
4.430532e+04, 1.412109e+12
4.434963e+04, 1.376062e+12
4.439398e+04, 1.384778e+12
4.443837e+04, 1.418634e+12
4.448281e+04, 1.380145e+12
4.452729e+04, 1.403097e+12
4.457182e+04, 1.366432e+12
4.461639e+04, 1.391700e+12
4.466101e+04, 1.319252e+12
4.470567e+04, 1.332675e+12
4.475037e+04, 1.368416e+12
4.479512e+04, 1.303820e+12
4.483992e+04, 1.355870e+12
4.488476e+04, 1.324618e+12
4.492964e+04, 1.322936e+12
4.497457e+04, 1.337384e+12
4.501955e+04, 1.326362e+12
4.506457e+04, 1.297891e+12
4.510963e+04, 1.301281e+12
4.515474e+04, 1.302936e+12
4.519990e+04, 1.271298e+12
4.524510e+04, 1.288593e+12
4.529034e+04, 1.285936e+12
4.533563e+04, 1.241108e+12
4.538097e+04, 1.275347e+12
4.542635e+04, 1.287507e+12
4.547177e+04, 1.261769e+12
4.551725e+04, 1.234742e+12
4.556276e+04, 1.268553e+12
4.560833e+04, 1.245509e+12
4.565393e+04, 1.237691e+12
4.569959e+04, 1.247974e+12
4.574529e+04, 1.223749e+12
4.579103e+04, 1.250753e+12
4.583682e+04, 1.220979e+12
4.588266e+04, 1.182426e+12
4.592854e+04, 1.233726e+12
4.597447e+04, 1.203186e+12
4.602045e+04, 1.205920e+12
4.606647e+04, 1.214943e+12
4.611253e+04, 1.206761e+12
4.615865e+04, 1.156461e+12
4.620480e+04, 1.212434e+12
4.625101e+04, 1.152857e+12
4.629726e+04, 1.215928e+12
4.634356e+04, 1.194214e+12
4.638990e+04, 1.151981e+12
4.643629e+04, 1.189753e+12
4.648273e+04, 1.160484e+12
4.652921e+04, 1.168929e+12
4.657574e+04, 1.183342e+12
4.662231e+04, 1.149954e+12
4.666894e+04, 1.144377e+12
4.671561e+04, 1.169674e+12
4.676232e+04, 1.157123e+12
4.680908e+04, 1.121503e+12
4.685589e+04, 1.166233e+12
4.690275e+04, 1.119291e+12
4.694965e+04, 1.163166e+12
4.699660e+04, 1.117354e+12
4.704360e+04, 1.138149e+12
4.709064e+04, 1.110538e+12
4.713773e+04, 1.123717e+12
4.718487e+04, 1.100334e+12
4.723205e+04, 1.142104e+12
4.727929e+04, 1.092842e+12
4.732657e+04, 1.095683e+12
4.737389e+04, 1.103001e+12
4.742127e+04, 1.106603e+12
4.746869e+04, 1.099186e+12
4.751616e+04, 1.088510e+12
4.756367e+04, 1.076404e+12
4.761124e+04, 1.078880e+12
4.765885e+04, 1.063966e+12
4.770651e+04, 1.092311e+12
4.775421e+04, 1.065297e+12
4.780197e+04, 1.062014e+12
4.784977e+04, 1.041454e+12
4.789762e+04, 1.097331e+12
4.794552e+04, 1.011856e+12
4.799346e+04, 1.072824e+12
4.804146e+04, 1.036747e+12
4.808950e+04, 1.052168e+12
4.813759e+04, 1.013310e+12
4.818572e+04, 1.053130e+12
4.823391e+04, 1.037959e+12
4.828214e+04, 1.062567e+12
4.833043e+04, 1.010055e+12
4.837876e+04, 1.028751e+12
4.842713e+04, 1.013077e+12
4.847556e+04, 1.034031e+12
4.852404e+04, 1.005504e+12
4.857256e+04, 1.022486e+12
4.862113e+04, 1.008392e+12
4.866976e+04, 1.004805e+12
4.871842e+04, 9.764324e+11
4.876714e+04, 9.741912e+11
4.881591e+04, 1.017393e+12
4.886473e+04, 9.787779e+11
4.891359e+04, 9.956393e+11
4.896250e+04, 9.522358e+11
4.901147e+04, 1.001647e+12
4.906048e+04, 9.798469e+11
4.910954e+04, 9.716347e+11
4.915865e+04, 9.687742e+11
4.920781e+04, 9.681377e+11
4.925702e+04, 9.382091e+11
4.930627e+04, 9.575108e+11
4.935558e+04, 9.350958e+11
4.940493e+04, 9.796682e+11
4.945434e+04, 9.484947e+11
4.950379e+04, 9.296591e+11
4.955330e+04, 9.212986e+11
4.960285e+04, 9.207807e+11
4.965245e+04, 9.493783e+11
4.970211e+04, 9.000862e+11
4.975181e+04, 9.586934e+11
4.980156e+04, 9.141412e+11
4.985136e+04, 9.384403e+11
4.990121e+04, 8.924921e+11
4.995111e+04, 9.177119e+11
5.000106e+04, 8.884379e+11
5.005107e+04, 9.149834e+11
5.010112e+04, 8.875510e+11
5.015122e+04, 8.964522e+11
5.020137e+04, 8.690675e+11
5.025157e+04, 8.811349e+11
5.030182e+04, 8.741936e+11
5.035212e+04, 8.918280e+11
5.040248e+04, 8.776933e+11
5.045288e+04, 8.635620e+11
5.050333e+04, 9.144029e+11
5.055383e+04, 8.539226e+11
5.060439e+04, 8.677080e+11
5.065499e+04, 8.427778e+11
5.070565e+04, 8.855670e+11
5.075635e+04, 8.635240e+11
5.080711e+04, 8.316386e+11
5.085792e+04, 8.639375e+11
5.090878e+04, 8.341641e+11
5.095968e+04, 8.445346e+11
5.101064e+04, 8.575337e+11
5.106165e+04, 8.262477e+11
5.111272e+04, 8.360889e+11
5.116383e+04, 8.438171e+11
5.121499e+04, 8.194028e+11
5.126621e+04, 8.283021e+11
5.131747e+04, 8.035722e+11
5.136879e+04, 8.431341e+11
5.142016e+04, 8.235918e+11
5.147158e+04, 7.805139e+11
5.152305e+04, 8.445295e+11
5.157457e+04, 8.026178e+11
5.162615e+04, 7.987652e+11
5.167778e+04, 7.946733e+11
5.172945e+04, 7.933579e+11
5.178118e+04, 8.101282e+11
5.183296e+04, 7.966877e+11
5.188480e+04, 7.988215e+11
5.193668e+04, 7.953569e+11
5.198862e+04, 7.638049e+11
5.204061e+04, 7.800435e+11
5.209265e+04, 8.016035e+11
5.214474e+04, 7.767737e+11
5.219688e+04, 7.786449e+11
5.224908e+04, 7.629199e+11
5.230133e+04, 7.659889e+11
5.235363e+04, 7.781206e+11
5.240599e+04, 7.453018e+11
5.245839e+04, 7.636284e+11
5.251085e+04, 7.568203e+11
5.256336e+04, 7.512880e+11
5.261592e+04, 7.772810e+11
5.266854e+04, 7.485008e+11
5.272121e+04, 7.422511e+11
5.277393e+04, 7.519736e+11
5.282670e+04, 7.243670e+11
5.287953e+04, 7.506445e+11
5.293241e+04, 7.311156e+11
5.298534e+04, 7.288817e+11
5.303833e+04, 7.489417e+11
5.309137e+04, 7.059189e+11
5.314446e+04, 7.374100e+11
5.319760e+04, 7.127471e+11
5.325080e+04, 7.171361e+11
5.330405e+04, 7.220041e+11
5.335735e+04, 7.276949e+11
5.341071e+04, 7.059906e+11
5.346412e+04, 7.093162e+11
5.351759e+04, 7.006454e+11
5.357110e+04, 7.159615e+11
5.362468e+04, 7.057124e+11
5.367830e+04, 6.977231e+11
5.373198e+04, 7.073709e+11
5.378571e+04, 6.881841e+11
5.383950e+04, 7.016654e+11
5.389334e+04, 6.891589e+11
5.394723e+04, 6.890180e+11
5.400118e+04, 6.974902e+11
5.405518e+04, 6.858024e+11
5.410923e+04, 6.644027e+11
5.416334e+04, 6.805934e+11
5.421751e+04, 6.707119e+11
5.427172e+04, 6.660147e+11
5.432599e+04, 6.733719e+11
5.438032e+04, 6.563813e+11
5.443470e+04, 6.791944e+11
5.448914e+04, 6.741256e+11
5.454362e+04, 6.511826e+11
5.459817e+04, 6.672641e+11
5.465277e+04, 6.537220e+11
5.470742e+04, 6.537990e+11
5.476213e+04, 6.523709e+11
5.481689e+04, 6.562567e+11
5.487171e+04, 6.576408e+11
5.492658e+04, 6.408918e+11
5.498150e+04, 6.483737e+11
5.503649e+04, 6.549846e+11
5.509152e+04, 6.311002e+11
5.514661e+04, 6.388851e+11
5.520176e+04, 6.459431e+11
5.525696e+04, 6.182721e+11
5.531222e+04, 6.210856e+11
5.536753e+04, 6.514150e+11
5.542290e+04, 6.215273e+11
5.547832e+04, 6.148340e+11
5.553380e+04, 6.309136e+11
5.558933e+04, 6.183364e+11
5.564492e+04, 6.131872e+11
5.570057e+04, 6.221441e+11
5.575627e+04, 6.146124e+11
5.581202e+04, 6.038166e+11
5.586784e+04, 6.091664e+11
5.592370e+04, 6.163153e+11
5.597963e+04, 6.172289e+11
5.603561e+04, 6.030241e+11
5.609164e+04, 6.060573e+11
5.614774e+04, 6.015290e+11
5.620388e+04, 5.875643e+11
5.626009e+04, 6.002764e+11
5.631635e+04, 5.915290e+11
5.637266e+04, 5.943223e+11
5.642904e+04, 5.899446e+11
5.648546e+04, 5.913023e+11
5.654195e+04, 5.815705e+11
5.659849e+04, 5.846559e+11
5.665509e+04, 5.789035e+11
5.671175e+04, 5.931635e+11
5.676846e+04, 5.699301e+11
5.682523e+04, 5.712473e+11
5.688205e+04, 5.765325e+11
5.693893e+04, 5.623890e+11
5.699587e+04, 5.752492e+11
5.705287e+04, 5.802922e+11
5.710992e+04, 5.622366e+11
5.716703e+04, 5.522798e+11
5.722420e+04, 5.605253e+11
5.728142e+04, 5.607536e+11
5.733870e+04, 5.428385e+11
5.739604e+04, 5.584176e+11
5.745344e+04, 5.641327e+11
5.751089e+04, 5.570997e+11
5.756840e+04, 5.516178e+11
5.762597e+04, 5.491728e+11
5.768360e+04, 5.525683e+11
5.774128e+04, 5.444588e+11
5.779902e+04, 5.391422e+11
5.785682e+04, 5.463021e+11
5.791468e+04, 5.416836e+11
5.797259e+04, 5.291336e+11
5.803056e+04, 5.487481e+11
5.808860e+04, 5.447858e+11
5.814668e+04, 5.266041e+11
5.820483e+04, 5.277752e+11
5.826304e+04, 5.345404e+11
5.832130e+04, 5.202398e+11
5.837962e+04, 5.215644e+11
5.843800e+04, 5.267654e+11
5.849644e+04, 5.236205e+11
5.855493e+04, 5.147333e+11
5.861349e+04, 5.288395e+11
5.867210e+04, 5.269960e+11
5.873077e+04, 5.080962e+11
5.878951e+04, 5.143117e+11
5.884829e+04, 5.124768e+11
5.890714e+04, 5.243270e+11
5.896605e+04, 5.006311e+11
5.902502e+04, 4.977204e+11
5.908404e+04, 5.096906e+11
5.914313e+04, 5.055941e+11
5.920227e+04, 5.031330e+11
5.926147e+04, 5.096411e+11
5.932073e+04, 5.032461e+11
5.938005e+04, 4.946938e+11
5.943943e+04, 4.970021e+11
5.949887e+04, 4.930494e+11
5.955837e+04, 4.974727e+11
5.961793e+04, 4.887727e+11
5.967755e+04, 4.826894e+11
5.973723e+04, 4.931981e+11
5.979696e+04, 4.856070e+11
5.985676e+04, 4.846920e+11
5.991662e+04, 4.823331e+11
5.997653e+04, 4.838107e+11
6.003651e+04, 4.843382e+11
6.009655e+04, 4.871229e+11
6.015664e+04, 4.778698e+11
6.021680e+04, 4.710953e+11
6.027702e+04, 4.796990e+11
6.033729e+04, 4.656876e+11
6.039763e+04, 4.640447e+11
6.045803e+04, 4.639316e+11
6.051849e+04, 4.655953e+11
6.057900e+04, 4.680621e+11
6.063958e+04, 4.658961e+11
6.070022e+04, 4.668880e+11
6.076092e+04, 4.642914e+11
6.082168e+04, 4.635437e+11
6.088251e+04, 4.573446e+11
6.094339e+04, 4.625856e+11
6.100433e+04, 4.511445e+11
6.106534e+04, 4.542346e+11
6.112640e+04, 4.430080e+11
6.118753e+04, 4.502172e+11
6.124872e+04, 4.514393e+11
6.130996e+04, 4.535509e+11
6.137127e+04, 4.531091e+11
6.143265e+04, 4.431813e+11
6.149408e+04, 4.442388e+11
6.155557e+04, 4.446877e+11
6.161713e+04, 4.408421e+11
6.167874e+04, 4.435347e+11
6.174042e+04, 4.304663e+11
6.180216e+04, 4.391519e+11
6.186397e+04, 4.336043e+11
6.192583e+04, 4.341295e+11
6.198776e+04, 4.309144e+11
6.204974e+04, 4.314709e+11
6.211179e+04, 4.337519e+11
6.217390e+04, 4.239261e+11
6.223608e+04, 4.286649e+11
6.229831e+04, 4.313086e+11
6.236061e+04, 4.257602e+11
6.242297e+04, 4.134954e+11
6.248540e+04, 4.171300e+11
6.254788e+04, 4.205990e+11
6.261043e+04, 4.143084e+11
6.267304e+04, 4.163187e+11
6.273571e+04, 4.109047e+11
6.279845e+04, 4.117754e+11
6.286125e+04, 4.182426e+11
6.292411e+04, 4.048448e+11
6.298703e+04, 4.063825e+11
6.305002e+04, 4.108090e+11
6.311307e+04, 4.063109e+11
6.317618e+04, 4.001247e+11
6.323936e+04, 4.026350e+11
6.330260e+04, 4.027012e+11
6.336590e+04, 3.976026e+11
6.342927e+04, 3.957279e+11
6.349270e+04, 3.953058e+11
6.355619e+04, 3.871609e+11
6.361975e+04, 3.944081e+11
6.368337e+04, 3.938622e+11
6.374705e+04, 3.913948e+11
6.381080e+04, 3.833739e+11
6.387461e+04, 3.809137e+11
6.393848e+04, 3.869358e+11
6.400242e+04, 3.864824e+11
6.406642e+04, 3.756253e+11
6.413049e+04, 3.739098e+11
6.419462e+04, 3.739107e+11
6.425881e+04, 3.804581e+11
6.432307e+04, 3.697496e+11
6.438740e+04, 3.697257e+11
6.445178e+04, 3.719010e+11
6.451623e+04, 3.615476e+11
6.458075e+04, 3.631385e+11
6.464533e+04, 3.651013e+11
6.470998e+04, 3.454094e+11
6.477469e+04, 3.481412e+11
6.483946e+04, 3.482998e+11
6.490430e+04, 3.553686e+11
6.496921e+04, 3.478505e+11
6.503417e+04, 3.421394e+11
6.509921e+04, 3.547938e+11
6.516431e+04, 3.411193e+11
6.522947e+04, 3.456450e+11
6.529470e+04, 3.381637e+11
6.536000e+04, 3.402036e+11
6.542536e+04, 3.346933e+11
6.549078e+04, 3.359458e+11
6.555627e+04, 3.341168e+11
6.562183e+04, 3.287494e+11
6.568745e+04, 3.248928e+11
6.575314e+04, 3.268345e+11
6.581889e+04, 3.323655e+11
6.588471e+04, 3.275553e+11
6.595059e+04, 3.106506e+11
6.601655e+04, 3.193206e+11
6.608256e+04, 3.277922e+11
6.614864e+04, 3.188609e+11
6.621479e+04, 3.081841e+11
6.628101e+04, 3.111675e+11
6.634729e+04, 3.093275e+11
6.641364e+04, 3.092630e+11
6.648005e+04, 3.165431e+11
6.654653e+04, 3.065620e+11
6.661308e+04, 3.095462e+11
6.667969e+04, 3.087458e+11
6.674637e+04, 3.088718e+11
6.681312e+04, 2.997824e+11
6.687993e+04, 2.978912e+11
6.694681e+04, 3.007732e+11
6.701376e+04, 3.057006e+11
6.708077e+04, 3.057874e+11
6.714785e+04, 3.016743e+11
6.721500e+04, 3.006798e+11
6.728221e+04, 2.971081e+11
6.734949e+04, 2.999078e+11
6.741684e+04, 2.978603e+11
6.748426e+04, 2.902223e+11
6.755175e+04, 2.951911e+11
6.761930e+04, 2.912509e+11
6.768692e+04, 2.875855e+11
6.775460e+04, 2.883363e+11
6.782236e+04, 2.828330e+11
6.789018e+04, 2.846563e+11
6.795807e+04, 2.845992e+11
6.802603e+04, 2.897987e+11
6.809405e+04, 2.842431e+11
6.816215e+04, 2.746364e+11
6.823031e+04, 2.820005e+11
6.829854e+04, 2.786286e+11
6.836684e+04, 2.743242e+11
6.843521e+04, 2.854645e+11
6.850364e+04, 2.798055e+11
6.857215e+04, 2.726645e+11
6.864072e+04, 2.754594e+11
6.870936e+04, 2.732866e+11
6.877807e+04, 2.769397e+11
6.884685e+04, 2.696766e+11
6.891569e+04, 2.720649e+11
6.898461e+04, 2.733360e+11
6.905359e+04, 2.642136e+11
6.912265e+04, 2.701212e+11
6.919177e+04, 2.646288e+11
6.926096e+04, 2.648322e+11
6.933022e+04, 2.675807e+11
6.939955e+04, 2.633006e+11
6.946895e+04, 2.642440e+11
6.953842e+04, 2.605068e+11
6.960796e+04, 2.622445e+11
6.967757e+04, 2.575422e+11
6.974724e+04, 2.605953e+11
6.981699e+04, 2.567385e+11
6.988681e+04, 2.614657e+11
6.995670e+04, 2.631511e+11
7.002665e+04, 2.531140e+11
7.009668e+04, 2.498358e+11
7.016678e+04, 2.538441e+11
7.023694e+04, 2.516047e+11
7.030718e+04, 2.491240e+11
7.037749e+04, 2.585827e+11
7.044786e+04, 2.511508e+11
7.051831e+04, 2.462626e+11
7.058883e+04, 2.528923e+11
7.065942e+04, 2.501313e+11
7.073008e+04, 2.450812e+11
7.080081e+04, 2.437389e+11
7.087161e+04, 2.461999e+11
7.094248e+04, 2.421098e+11
7.101342e+04, 2.421426e+11
7.108444e+04, 2.402472e+11
7.115552e+04, 2.428085e+11
7.122668e+04, 2.388776e+11
7.129790e+04, 2.416369e+11
7.136920e+04, 2.382770e+11
7.144057e+04, 2.370260e+11
7.151201e+04, 2.356639e+11
7.158352e+04, 2.420212e+11
7.165511e+04, 2.392114e+11
7.172676e+04, 2.355243e+11
7.179849e+04, 2.338405e+11
7.187029e+04, 2.342655e+11
7.194216e+04, 2.328563e+11
7.201410e+04, 2.319091e+11
7.208611e+04, 2.298950e+11
7.215820e+04, 2.294956e+11
7.223036e+04, 2.280964e+11
7.230259e+04, 2.287782e+11
7.237489e+04, 2.271073e+11
7.244727e+04, 2.271831e+11
7.251971e+04, 2.278062e+11
7.259223e+04, 2.239124e+11
7.266482e+04, 2.270786e+11
7.273749e+04, 2.192041e+11
7.281023e+04, 2.238145e+11
7.288304e+04, 2.241698e+11
7.295592e+04, 2.187081e+11
7.302888e+04, 2.190234e+11
7.310191e+04, 2.212001e+11
7.317501e+04, 2.209584e+11
7.324818e+04, 2.189501e+11
7.332143e+04, 2.148369e+11
7.339475e+04, 2.143605e+11
7.346815e+04, 2.134889e+11
7.354161e+04, 2.143490e+11
7.361516e+04, 2.130715e+11
7.368877e+04, 2.131399e+11
7.376246e+04, 2.103347e+11
7.383622e+04, 2.120381e+11
7.391006e+04, 2.149716e+11
7.398397e+04, 2.125005e+11
7.405795e+04, 2.107990e+11
7.413201e+04, 2.079943e+11
7.420614e+04, 2.069983e+11
7.428035e+04, 2.057047e+11
7.435463e+04, 2.023878e+11
7.442898e+04, 2.040198e+11
7.450341e+04, 2.063662e+11
7.457792e+04, 2.053681e+11
7.465249e+04, 2.039081e+11
7.472715e+04, 2.046565e+11
7.480187e+04, 2.035879e+11
7.487668e+04, 2.071602e+11
7.495155e+04, 1.972411e+11
7.502650e+04, 1.987772e+11
7.510153e+04, 2.018319e+11
7.517663e+04, 1.980190e+11
7.525181e+04, 1.968252e+11
7.532706e+04, 1.939174e+11
7.540239e+04, 1.946784e+11
7.547779e+04, 1.962279e+11
7.555327e+04, 1.963984e+11
7.562882e+04, 1.979141e+11
7.570445e+04, 1.902442e+11
7.578015e+04, 1.898985e+11
7.585593e+04, 1.877784e+11
7.593179e+04, 1.927647e+11
7.600772e+04, 1.842536e+11
7.608373e+04, 1.871366e+11
7.615981e+04, 1.841242e+11
7.623597e+04, 1.882349e+11
7.631221e+04, 1.817929e+11
7.638852e+04, 1.855888e+11
7.646491e+04, 1.839047e+11
7.654138e+04, 1.843415e+11
7.661792e+04, 1.812594e+11
7.669453e+04, 1.801946e+11
7.677123e+04, 1.821357e+11
7.684800e+04, 1.827526e+11
7.692485e+04, 1.796489e+11
7.700177e+04, 1.805325e+11
7.707877e+04, 1.777403e+11
7.715585e+04, 1.771348e+11
7.723301e+04, 1.764686e+11
7.731024e+04, 1.756174e+11
7.738755e+04, 1.715463e+11
7.746494e+04, 1.720008e+11
7.754241e+04, 1.748934e+11
7.761995e+04, 1.721078e+11
7.769757e+04, 1.706291e+11
7.777527e+04, 1.736187e+11
7.785304e+04, 1.695501e+11
7.793089e+04, 1.705143e+11
7.800882e+04, 1.657079e+11
7.808683e+04, 1.672986e+11
7.816492e+04, 1.683885e+11
7.824308e+04, 1.698211e+11
7.832133e+04, 1.663386e+11
7.839965e+04, 1.688187e+11
7.847805e+04, 1.684110e+11
7.855653e+04, 1.622827e+11
7.863508e+04, 1.631128e+11
7.871372e+04, 1.606955e+11
7.879243e+04, 1.628482e+11
7.887122e+04, 1.601886e+11
7.895010e+04, 1.580282e+11
7.902905e+04, 1.601506e+11
7.910808e+04, 1.596886e+11
7.918718e+04, 1.603061e+11
7.926637e+04, 1.575309e+11
7.934564e+04, 1.603524e+11
7.942498e+04, 1.579901e+11
7.950441e+04, 1.572282e+11
7.958391e+04, 1.562952e+11
7.966350e+04, 1.543189e+11
7.974316e+04, 1.538970e+11
7.982290e+04, 1.515624e+11
7.990273e+04, 1.528773e+11
7.998263e+04, 1.544946e+11
8.006261e+04, 1.527141e+11
8.014267e+04, 1.524835e+11
8.022282e+04, 1.498300e+11
8.030304e+04, 1.546680e+11
8.038334e+04, 1.493886e+11
8.046373e+04, 1.490121e+11
8.054419e+04, 1.490814e+11
8.062473e+04, 1.491711e+11
8.070536e+04, 1.478704e+11
8.078606e+04, 1.466407e+11
8.086685e+04, 1.488735e+11
8.094772e+04, 1.454293e+11
8.102866e+04, 1.436280e+11
8.110969e+04, 1.448713e+11
8.119080e+04, 1.444595e+11
8.127199e+04, 1.436891e+11
8.135326e+04, 1.455166e+11
8.143462e+04, 1.451813e+11
8.151605e+04, 1.429460e+11
8.159757e+04, 1.399779e+11
8.167917e+04, 1.435019e+11
8.176085e+04, 1.431471e+11
8.184261e+04, 1.413025e+11
8.192445e+04, 1.401329e+11
8.200637e+04, 1.371070e+11
8.208838e+04, 1.373673e+11
8.217047e+04, 1.388801e+11
8.225264e+04, 1.379362e+11
8.233489e+04, 1.370118e+11
8.241723e+04, 1.374736e+11
8.249964e+04, 1.384602e+11
8.258214e+04, 1.389341e+11
8.266473e+04, 1.346983e+11
8.274739e+04, 1.354496e+11
8.283014e+04, 1.317046e+11
8.291297e+04, 1.355255e+11
8.299588e+04, 1.336284e+11
8.307888e+04, 1.342339e+11
8.316196e+04, 1.322228e+11
8.324512e+04, 1.306055e+11
8.332836e+04, 1.294551e+11
8.341169e+04, 1.317824e+11
8.349510e+04, 1.300612e+11
8.357860e+04, 1.304008e+11
8.366218e+04, 1.301269e+11
8.374584e+04, 1.266732e+11
8.382958e+04, 1.269127e+11
8.391341e+04, 1.270158e+11
8.399733e+04, 1.283060e+11
8.408132e+04, 1.282256e+11
8.416541e+04, 1.295070e+11
8.424957e+04, 1.258705e+11
8.433382e+04, 1.260039e+11
8.441815e+04, 1.260674e+11
8.450257e+04, 1.249910e+11
8.458708e+04, 1.230052e+11
8.467166e+04, 1.246626e+11
8.475633e+04, 1.245572e+11
8.484109e+04, 1.226881e+11
8.492593e+04, 1.218108e+11
8.501086e+04, 1.196706e+11
8.509587e+04, 1.229572e+11
8.518096e+04, 1.208185e+11
8.526614e+04, 1.237744e+11
8.535141e+04, 1.192689e+11
8.543676e+04, 1.195837e+11
8.552220e+04, 1.193095e+11
8.560772e+04, 1.179448e+11
8.569333e+04, 1.179113e+11
8.577902e+04, 1.191641e+11
8.586480e+04, 1.176090e+11
8.595067e+04, 1.177468e+11
8.603662e+04, 1.180164e+11
8.612265e+04, 1.171538e+11
8.620878e+04, 1.145591e+11
8.629499e+04, 1.153957e+11
8.638128e+04, 1.173461e+11
8.646766e+04, 1.148808e+11
8.655413e+04, 1.142927e+11
8.664068e+04, 1.153798e+11
8.672732e+04, 1.128925e+11
8.681405e+04, 1.109448e+11
8.690087e+04, 1.143930e+11
8.698777e+04, 1.165711e+11
8.707475e+04, 1.110306e+11
8.716183e+04, 1.104985e+11
8.724899e+04, 1.111475e+11
8.733624e+04, 1.094501e+11
8.742358e+04, 1.102771e+11
8.751100e+04, 1.092149e+11
8.759851e+04, 1.070784e+11
8.768611e+04, 1.083785e+11
8.777379e+04, 1.097800e+11
8.786157e+04, 1.079371e+11
8.794943e+04, 1.085739e+11
8.803738e+04, 1.056604e+11
8.812542e+04, 1.072012e+11
8.821354e+04, 1.059634e+11
8.830176e+04, 1.068327e+11
8.839006e+04, 1.056179e+11
8.847845e+04, 1.068684e+11
8.856693e+04, 1.040660e+11
8.865549e+04, 1.046396e+11
8.874415e+04, 1.055046e+11
8.883289e+04, 1.048429e+11
8.892173e+04, 1.031491e+11
8.901065e+04, 1.044301e+11
8.909966e+04, 1.024710e+11
8.918876e+04, 1.023538e+11
8.927795e+04, 1.035433e+11
8.936722e+04, 1.024783e+11
8.945659e+04, 1.001603e+11
8.954605e+04, 1.012235e+11
8.963559e+04, 1.008426e+11
8.972523e+04, 9.983450e+10
8.981496e+04, 9.869427e+10
8.990477e+04, 1.011373e+11
8.999467e+04, 9.938025e+10
9.008467e+04, 1.004326e+11
9.017475e+04, 9.833328e+10
9.026493e+04, 9.887370e+10
9.035519e+04, 9.775228e+10
9.044555e+04, 9.884249e+10
9.053599e+04, 9.839313e+10
9.062653e+04, 9.615151e+10
9.071716e+04, 9.721562e+10
9.080787e+04, 9.712591e+10
9.089868e+04, 9.494427e+10
9.098958e+04, 9.689852e+10
9.108057e+04, 9.466402e+10
9.117165e+04, 9.544211e+10
9.126282e+04, 9.412634e+10
9.135409e+04, 9.394912e+10
9.144544e+04, 9.498596e+10
9.153688e+04, 9.232761e+10
9.162842e+04, 9.452961e+10
9.172005e+04, 9.175338e+10
9.181177e+04, 9.339111e+10
9.190358e+04, 9.219462e+10
9.199549e+04, 9.095786e+10
9.208748e+04, 9.194225e+10
9.217957e+04, 9.144793e+10
9.227175e+04, 9.106079e+10
9.236402e+04, 9.113374e+10
9.245638e+04, 9.018754e+10
9.254884e+04, 8.889793e+10
9.264139e+04, 8.895586e+10
9.273403e+04, 8.919382e+10
9.282676e+04, 8.898594e+10
9.291959e+04, 8.828720e+10
9.301251e+04, 8.767797e+10
9.310552e+04, 8.843262e+10
9.319863e+04, 8.667403e+10
9.329183e+04, 8.641405e+10
9.338512e+04, 8.639955e+10
9.347850e+04, 8.738814e+10
9.357198e+04, 8.693109e+10
9.366556e+04, 8.698000e+10
9.375922e+04, 8.521343e+10
9.385298e+04, 8.546414e+10
9.394683e+04, 8.385944e+10
9.404078e+04, 8.447523e+10
9.413482e+04, 8.404079e+10
9.422896e+04, 8.424188e+10
9.432318e+04, 8.462765e+10
9.441751e+04, 8.186572e+10
9.451192e+04, 8.380576e+10
9.460644e+04, 8.251590e+10
9.470104e+04, 8.278326e+10
9.479574e+04, 8.183585e+10
9.489054e+04, 8.276085e+10
9.498543e+04, 8.125271e+10
9.508042e+04, 8.135145e+10
9.517550e+04, 8.089535e+10
9.527067e+04, 8.145050e+10
9.536594e+04, 8.085885e+10
9.546131e+04, 8.141505e+10
9.555677e+04, 8.008147e+10
9.565233e+04, 7.902234e+10
9.574798e+04, 7.930652e+10
9.584373e+04, 7.857823e+10
9.593957e+04, 7.848330e+10
9.603551e+04, 7.748187e+10
9.613155e+04, 7.825451e+10
9.622768e+04, 7.747513e+10
9.632390e+04, 7.731093e+10
9.642023e+04, 7.701440e+10
9.651665e+04, 7.731252e+10
9.661317e+04, 7.611505e+10
9.670978e+04, 7.573458e+10
9.680649e+04, 7.528731e+10
9.690330e+04, 7.670966e+10
9.700020e+04, 7.515422e+10
9.709720e+04, 7.549023e+10
9.719430e+04, 7.476285e+10
9.729149e+04, 7.492520e+10
9.738878e+04, 7.433995e+10
9.748617e+04, 7.461780e+10
9.758366e+04, 7.425151e+10
9.768124e+04, 7.415348e+10
9.777892e+04, 7.196302e+10
9.787670e+04, 7.228825e+10
9.797458e+04, 7.343224e+10
9.807255e+04, 7.287691e+10
9.817062e+04, 7.166023e+10
9.826879e+04, 7.190788e+10
9.836706e+04, 7.237196e+10
9.846543e+04, 7.164182e+10
9.856390e+04, 7.004421e+10
9.866246e+04, 7.118877e+10
9.876112e+04, 7.188664e+10
9.885988e+04, 6.871838e+10
9.895874e+04, 6.851889e+10
9.905770e+04, 6.952658e+10
9.915676e+04, 6.845295e+10
9.925592e+04, 6.752330e+10
9.935517e+04, 6.923679e+10
9.945453e+04, 6.929160e+10
9.955398e+04, 6.846767e+10
9.965354e+04, 6.797464e+10
9.975319e+04, 6.818576e+10
9.985294e+04, 6.740357e+10
9.995280e+04, 6.720614e+10
1.000527e+05, 6.751876e+10
1.001528e+05, 6.706006e+10
1.002530e+05, 6.708525e+10
1.003532e+05, 6.647397e+10
1.004536e+05, 6.710118e+10
1.005540e+05, 6.597657e+10
1.006546e+05, 6.398006e+10
1.007552e+05, 6.485030e+10
1.008560e+05, 6.431064e+10
1.009568e+05, 6.494909e+10
1.010578e+05, 6.456348e+10
1.011588e+05, 6.437269e+10
1.012600e+05, 6.458158e+10
1.013613e+05, 6.320281e+10
1.014626e+05, 6.376304e+10
1.015641e+05, 6.382339e+10
1.016657e+05, 6.411636e+10
1.017673e+05, 6.296003e+10
1.018691e+05, 6.230951e+10
1.019710e+05, 6.339553e+10
1.020729e+05, 6.233904e+10
1.021750e+05, 6.132017e+10
1.022772e+05, 6.142962e+10
1.023795e+05, 6.072371e+10
1.024818e+05, 6.121975e+10
1.025843e+05, 6.114852e+10
1.026869e+05, 6.119469e+10
1.027896e+05, 6.011092e+10
1.028924e+05, 6.046396e+10
1.029953e+05, 6.069264e+10
1.030983e+05, 5.990757e+10
1.032014e+05, 5.862018e+10
1.033046e+05, 5.931121e+10
1.034079e+05, 5.936311e+10
1.035113e+05, 5.940688e+10
1.036148e+05, 5.820439e+10
1.037184e+05, 5.851060e+10
1.038221e+05, 5.780681e+10
1.039259e+05, 5.813829e+10
1.040299e+05, 5.642642e+10
1.041339e+05, 5.770665e+10
1.042380e+05, 5.663784e+10
1.043423e+05, 5.624463e+10
1.044466e+05, 5.727097e+10
1.045511e+05, 5.650352e+10
1.046556e+05, 5.650692e+10
1.047603e+05, 5.524633e+10
1.048650e+05, 5.634138e+10
1.049699e+05, 5.616097e+10
1.050749e+05, 5.489199e+10
1.051799e+05, 5.542020e+10
1.052851e+05, 5.497833e+10
1.053904e+05, 5.510053e+10
1.054958e+05, 5.463702e+10
1.056013e+05, 5.432162e+10
1.057069e+05, 5.427779e+10
1.058126e+05, 5.418312e+10
1.059184e+05, 5.359888e+10
1.060243e+05, 5.234209e+10
1.061303e+05, 5.227088e+10
1.062365e+05, 5.419631e+10
1.063427e+05, 5.253596e+10
1.064491e+05, 5.359794e+10
1.065555e+05, 5.239069e+10
1.066621e+05, 5.281645e+10
1.067687e+05, 5.252449e+10
1.068755e+05, 5.116875e+10
1.069824e+05, 5.206459e+10
1.070894e+05, 5.049815e+10
1.071964e+05, 5.157508e+10
1.073036e+05, 5.097127e+10
1.074109e+05, 5.067541e+10
1.075184e+05, 5.011938e+10
1.076259e+05, 5.070496e+10
1.077335e+05, 5.071785e+10
1.078412e+05, 4.967446e+10
1.079491e+05, 4.942017e+10
1.080570e+05, 4.993232e+10
1.081651e+05, 4.921205e+10
1.082732e+05, 4.828985e+10
1.083815e+05, 5.023432e+10
1.084899e+05, 4.872404e+10
1.085984e+05, 4.938589e+10
1.087070e+05, 4.864878e+10
1.088157e+05, 4.815530e+10
1.089245e+05, 4.700137e+10
1.090334e+05, 4.737619e+10
1.091425e+05, 4.802573e+10
1.092516e+05, 4.782378e+10
1.093609e+05, 4.694749e+10
1.094702e+05, 4.712018e+10
1.095797e+05, 4.808093e+10
1.096893e+05, 4.655059e+10
1.097990e+05, 4.615251e+10
1.099088e+05, 4.596054e+10
1.100187e+05, 4.673694e+10
1.101287e+05, 4.633156e+10
1.102388e+05, 4.593725e+10
1.103491e+05, 4.638201e+10
1.104594e+05, 4.417025e+10
1.105699e+05, 4.416477e+10
1.106804e+05, 4.478599e+10
1.107911e+05, 4.469377e+10
1.109019e+05, 4.439955e+10
1.110128e+05, 4.534127e+10
1.111238e+05, 4.376685e+10
1.112349e+05, 4.468389e+10
1.113462e+05, 4.379897e+10
1.114575e+05, 4.517466e+10
1.115690e+05, 4.391293e+10
1.116806e+05, 4.384382e+10
1.117922e+05, 4.308457e+10
1.119040e+05, 4.339403e+10
1.120159e+05, 4.229983e+10
1.121279e+05, 4.281705e+10
1.122401e+05, 4.262418e+10
1.123523e+05, 4.271464e+10
1.124647e+05, 4.270000e+10
1.125771e+05, 4.224304e+10
1.126897e+05, 4.205533e+10
1.128024e+05, 4.240060e+10
1.129152e+05, 4.111630e+10
1.130281e+05, 4.079802e+10
1.131411e+05, 4.076928e+10
1.132543e+05, 4.083273e+10
1.133675e+05, 4.103354e+10
1.134809e+05, 4.146247e+10
1.135944e+05, 4.063178e+10
1.137080e+05, 4.045897e+10
1.138217e+05, 4.075023e+10
1.139355e+05, 4.009540e+10
1.140494e+05, 4.052211e+10
1.141635e+05, 4.116683e+10
1.142777e+05, 3.985538e+10
1.143919e+05, 3.923005e+10
1.145063e+05, 3.900761e+10
1.146208e+05, 3.996957e+10
1.147355e+05, 3.896775e+10
1.148502e+05, 3.872374e+10
1.149650e+05, 3.911244e+10
1.150800e+05, 3.884867e+10
1.151951e+05, 3.845489e+10
1.153103e+05, 3.846491e+10
1.154256e+05, 3.765917e+10
1.155410e+05, 3.734232e+10
1.156566e+05, 3.783689e+10
1.157722e+05, 3.747948e+10
1.158880e+05, 3.739101e+10
1.160039e+05, 3.646742e+10
1.161199e+05, 3.654234e+10
1.162360e+05, 3.726140e+10
1.163522e+05, 3.698413e+10
1.164686e+05, 3.730767e+10
1.165851e+05, 3.728076e+10
1.167016e+05, 3.707702e+10
1.168183e+05, 3.663793e+10
1.169352e+05, 3.656527e+10
1.170521e+05, 3.649530e+10
1.171691e+05, 3.593857e+10
1.172863e+05, 3.568569e+10
1.174036e+05, 3.513898e+10
1.175210e+05, 3.556567e+10
1.176385e+05, 3.532045e+10
1.177562e+05, 3.531561e+10
1.178739e+05, 3.554433e+10
1.179918e+05, 3.458837e+10
1.181098e+05, 3.504530e+10
1.182279e+05, 3.444014e+10
1.183461e+05, 3.392545e+10
1.184645e+05, 3.529903e+10
1.185829e+05, 3.379891e+10
1.187015e+05, 3.451415e+10
1.188202e+05, 3.486369e+10
1.189390e+05, 3.445627e+10
1.190580e+05, 3.317463e+10
1.191770e+05, 3.347875e+10
1.192962e+05, 3.312589e+10
1.194155e+05, 3.434634e+10
1.195349e+05, 3.345770e+10
1.196545e+05, 3.295648e+10
1.197741e+05, 3.389011e+10
1.198939e+05, 3.320367e+10
1.200138e+05, 3.285333e+10
1.201338e+05, 3.289263e+10
1.202539e+05, 3.217975e+10
1.203742e+05, 3.316492e+10
1.204946e+05, 3.186500e+10
1.206151e+05, 3.191490e+10
1.207357e+05, 3.288275e+10
1.208564e+05, 3.183099e+10
1.209773e+05, 3.173142e+10
1.210982e+05, 3.163218e+10
1.212193e+05, 3.129981e+10
1.213406e+05, 3.202252e+10
1.214619e+05, 3.095430e+10
1.215834e+05, 3.058002e+10
1.217049e+05, 3.164254e+10
1.218266e+05, 3.138899e+10
1.219485e+05, 3.110987e+10
1.220704e+05, 3.089839e+10
1.221925e+05, 3.061569e+10
1.223147e+05, 3.126716e+10
1.224370e+05, 3.037932e+10
1.225594e+05, 3.013466e+10
1.226820e+05, 3.003071e+10
1.228047e+05, 2.965085e+10
1.229275e+05, 3.008384e+10
1.230504e+05, 3.022202e+10
1.231735e+05, 2.936058e+10
1.232966e+05, 2.981133e+10
1.234199e+05, 2.982415e+10
1.235433e+05, 2.940364e+10
1.236669e+05, 2.886470e+10
1.237906e+05, 2.936051e+10
1.239144e+05, 2.962594e+10
1.240383e+05, 2.878580e+10
1.241623e+05, 2.847303e+10
1.242865e+05, 2.812056e+10
1.244108e+05, 2.810814e+10
1.245352e+05, 2.821474e+10
1.246597e+05, 2.867762e+10
1.247844e+05, 2.820391e+10
1.249091e+05, 2.837579e+10
1.250341e+05, 2.807689e+10
1.251591e+05, 2.805301e+10
1.252842e+05, 2.755645e+10
1.254095e+05, 2.756305e+10
1.255349e+05, 2.745687e+10
1.256605e+05, 2.764112e+10
1.257861e+05, 2.737618e+10
1.259119e+05, 2.730652e+10
1.260378e+05, 2.713699e+10
1.261639e+05, 2.760681e+10
1.262900e+05, 2.722186e+10
1.264163e+05, 2.633985e+10
1.265427e+05, 2.618190e+10
1.266693e+05, 2.576703e+10
1.267960e+05, 2.638123e+10
1.269227e+05, 2.683349e+10
1.270497e+05, 2.651850e+10
1.271767e+05, 2.661955e+10
1.273039e+05, 2.629825e+10
1.274312e+05, 2.676644e+10
1.275586e+05, 2.599457e+10
1.276862e+05, 2.581681e+10
1.278139e+05, 2.533429e+10
1.279417e+05, 2.526924e+10
1.280696e+05, 2.520024e+10
1.281977e+05, 2.556320e+10
1.283259e+05, 2.562314e+10
1.284542e+05, 2.521488e+10
1.285827e+05, 2.537138e+10
1.287113e+05, 2.557678e+10
1.288400e+05, 2.562833e+10
1.289688e+05, 2.492153e+10
1.290978e+05, 2.501986e+10
1.292269e+05, 2.441510e+10
1.293561e+05, 2.444390e+10
1.294855e+05, 2.464105e+10
1.296149e+05, 2.444215e+10
1.297446e+05, 2.431220e+10
1.298743e+05, 2.403236e+10
1.300042e+05, 2.426753e+10
1.301342e+05, 2.416110e+10
1.302643e+05, 2.361664e+10
1.303946e+05, 2.389982e+10
1.305250e+05, 2.373011e+10
1.306555e+05, 2.376011e+10
1.307862e+05, 2.350338e+10
1.309169e+05, 2.306988e+10
1.310479e+05, 2.384737e+10
1.311789e+05, 2.350204e+10
1.313101e+05, 2.351535e+10
1.314414e+05, 2.293556e+10
1.315728e+05, 2.305866e+10
1.317044e+05, 2.282202e+10
1.318361e+05, 2.245341e+10
1.319680e+05, 2.300509e+10
1.320999e+05, 2.199284e+10
1.322320e+05, 2.257055e+10
1.323643e+05, 2.265752e+10
1.324966e+05, 2.267829e+10
1.326291e+05, 2.206334e+10
1.327617e+05, 2.269089e+10
1.328945e+05, 2.206615e+10
1.330274e+05, 2.220929e+10
1.331604e+05, 2.184910e+10
1.332936e+05, 2.192007e+10
1.334269e+05, 2.155150e+10
1.335603e+05, 2.145000e+10
1.336939e+05, 2.176386e+10
1.338276e+05, 2.167536e+10
1.339614e+05, 2.186774e+10
1.340954e+05, 2.185698e+10
1.342294e+05, 2.120309e+10
1.343637e+05, 2.140436e+10
1.344980e+05, 2.096992e+10
1.346325e+05, 2.118258e+10
1.347672e+05, 2.104566e+10
1.349019e+05, 2.095667e+10
1.350368e+05, 2.114399e+10
1.351719e+05, 2.110498e+10
1.353070e+05, 2.042392e+10
1.354424e+05, 2.014650e+10
1.355778e+05, 2.015651e+10
1.357134e+05, 2.019661e+10
1.358491e+05, 2.051035e+10
1.359849e+05, 2.032157e+10
1.361209e+05, 2.007226e+10
1.362570e+05, 2.021095e+10
1.363933e+05, 1.964935e+10
1.365297e+05, 1.977334e+10
1.366662e+05, 2.022042e+10
1.368029e+05, 2.023847e+10
1.369397e+05, 1.948408e+10
1.370766e+05, 1.957821e+10
1.372137e+05, 1.947639e+10
1.373509e+05, 1.979697e+10
1.374883e+05, 1.936837e+10
1.376258e+05, 1.878300e+10
1.377634e+05, 1.904388e+10
1.379012e+05, 1.934368e+10
1.380391e+05, 1.955655e+10
1.381771e+05, 1.915272e+10
1.383153e+05, 1.933089e+10
1.384536e+05, 1.891029e+10
1.385920e+05, 1.882753e+10
1.387306e+05, 1.909019e+10
1.388694e+05, 1.898787e+10
1.390082e+05, 1.881776e+10
1.391472e+05, 1.868554e+10
1.392864e+05, 1.881735e+10
1.394257e+05, 1.862641e+10
1.395651e+05, 1.864719e+10
1.397047e+05, 1.809144e+10
1.398444e+05, 1.841183e+10
1.399842e+05, 1.816480e+10
1.401242e+05, 1.798432e+10
1.402643e+05, 1.827392e+10
1.404046e+05, 1.803617e+10
1.405450e+05, 1.775414e+10
1.406855e+05, 1.750259e+10
1.408262e+05, 1.778892e+10
1.409670e+05, 1.785543e+10
1.411080e+05, 1.766194e+10
1.412491e+05, 1.711269e+10
1.413904e+05, 1.731797e+10
1.415318e+05, 1.727570e+10
1.416733e+05, 1.705567e+10
1.418150e+05, 1.723472e+10
1.419568e+05, 1.704174e+10
1.420987e+05, 1.668649e+10
1.422408e+05, 1.710463e+10
1.423831e+05, 1.698047e+10
1.425255e+05, 1.725213e+10
1.426680e+05, 1.702896e+10
1.428107e+05, 1.697229e+10
1.429535e+05, 1.689773e+10
1.430964e+05, 1.696504e+10
1.432395e+05, 1.642059e+10
1.433828e+05, 1.664165e+10
1.435261e+05, 1.660462e+10
1.436697e+05, 1.653882e+10
1.438133e+05, 1.642670e+10
1.439571e+05, 1.637804e+10
1.441011e+05, 1.614193e+10
1.442452e+05, 1.616083e+10
1.443894e+05, 1.616190e+10
1.445338e+05, 1.596902e+10
1.446784e+05, 1.593509e+10
1.448231e+05, 1.577533e+10
1.449679e+05, 1.562118e+10
1.451128e+05, 1.609815e+10
1.452580e+05, 1.573445e+10
1.454032e+05, 1.583750e+10
1.455486e+05, 1.578094e+10
1.456942e+05, 1.591486e+10
1.458399e+05, 1.551492e+10
1.459857e+05, 1.553763e+10
1.461317e+05, 1.568266e+10
1.462778e+05, 1.480724e+10
1.464241e+05, 1.488109e+10
1.465705e+05, 1.447321e+10
1.467171e+05, 1.500627e+10
1.468638e+05, 1.502333e+10
1.470107e+05, 1.494624e+10
1.471577e+05, 1.467775e+10
1.473048e+05, 1.480351e+10
1.474521e+05, 1.489795e+10
1.475996e+05, 1.503297e+10
1.477472e+05, 1.484198e+10
1.478949e+05, 1.482285e+10
1.480428e+05, 1.502478e+10
1.481909e+05, 1.474856e+10
1.483391e+05, 1.457938e+10
1.484874e+05, 1.451715e+10
1.486359e+05, 1.435098e+10
1.487845e+05, 1.432534e+10
1.489333e+05, 1.420741e+10
1.490823e+05, 1.434284e+10
1.492313e+05, 1.410837e+10
1.493806e+05, 1.431165e+10
1.495299e+05, 1.413709e+10
1.496795e+05, 1.389480e+10
1.498292e+05, 1.381646e+10
1.499790e+05, 1.420789e+10
1.501290e+05, 1.385728e+10
1.502791e+05, 1.401361e+10
1.504294e+05, 1.342151e+10
1.505798e+05, 1.379176e+10
1.507304e+05, 1.397706e+10
1.508811e+05, 1.373173e+10
1.510320e+05, 1.355364e+10
1.511830e+05, 1.356220e+10
1.513342e+05, 1.330442e+10
1.514855e+05, 1.361903e+10
1.516370e+05, 1.354483e+10
1.517887e+05, 1.304385e+10
1.519405e+05, 1.328293e+10
1.520924e+05, 1.349325e+10
1.522445e+05, 1.306572e+10
1.523967e+05, 1.312033e+10
1.525491e+05, 1.276198e+10
1.527017e+05, 1.289261e+10
1.528544e+05, 1.265501e+10
1.530072e+05, 1.271843e+10
1.531602e+05, 1.264730e+10
1.533134e+05, 1.271593e+10
1.534667e+05, 1.264116e+10
1.536202e+05, 1.264103e+10
1.537738e+05, 1.252767e+10
1.539276e+05, 1.248202e+10
1.540815e+05, 1.274410e+10
1.542356e+05, 1.237487e+10
1.543898e+05, 1.241530e+10
1.545442e+05, 1.231180e+10
1.546988e+05, 1.227984e+10
1.548534e+05, 1.233805e+10
1.550083e+05, 1.233934e+10
1.551633e+05, 1.224137e+10
1.553185e+05, 1.218008e+10
1.554738e+05, 1.219324e+10
1.556293e+05, 1.202872e+10
1.557849e+05, 1.202050e+10
1.559407e+05, 1.207673e+10
1.560966e+05, 1.205301e+10
1.562527e+05, 1.202185e+10
1.564090e+05, 1.174931e+10
1.565654e+05, 1.182579e+10
1.567219e+05, 1.190565e+10
1.568787e+05, 1.177743e+10
1.570355e+05, 1.172015e+10
1.571926e+05, 1.161684e+10
1.573498e+05, 1.169759e+10
1.575071e+05, 1.142959e+10
1.576646e+05, 1.143772e+10
1.578223e+05, 1.166911e+10
1.579801e+05, 1.144623e+10
1.581381e+05, 1.127378e+10
1.582962e+05, 1.147949e+10
1.584545e+05, 1.129838e+10
1.586130e+05, 1.108802e+10
1.587716e+05, 1.136428e+10
1.589304e+05, 1.092683e+10
1.590893e+05, 1.097759e+10
1.592484e+05, 1.070065e+10
1.594076e+05, 1.111118e+10
1.595670e+05, 1.080362e+10
1.597266e+05, 1.079086e+10
1.598863e+05, 1.062571e+10
1.600462e+05, 1.068416e+10
1.602063e+05, 1.057927e+10
1.603665e+05, 1.081016e+10
1.605268e+05, 1.062081e+10
1.606874e+05, 1.078924e+10
1.608481e+05, 1.055472e+10
1.610089e+05, 1.051074e+10
1.611699e+05, 1.040435e+10
1.613311e+05, 1.063440e+10
1.614924e+05, 1.036084e+10
1.616539e+05, 1.028515e+10
1.618156e+05, 1.043648e+10
1.619774e+05, 1.036472e+10
1.621394e+05, 1.017175e+10
1.623015e+05, 1.034257e+10
1.624638e+05, 1.038132e+10
1.626263e+05, 1.014333e+10
1.627889e+05, 1.004875e+10
1.629517e+05, 1.021270e+10
1.631146e+05, 1.015799e+10
1.632777e+05, 9.959798e+09
1.634410e+05, 1.022633e+10
1.636045e+05, 1.026403e+10
1.637681e+05, 9.946166e+09
1.639318e+05, 9.713714e+09
1.640958e+05, 9.875066e+09
1.642599e+05, 9.851245e+09
1.644241e+05, 9.819875e+09
1.645885e+05, 9.892503e+09
1.647531e+05, 9.459352e+09
1.649179e+05, 9.693874e+09
1.650828e+05, 9.737202e+09
1.652479e+05, 9.646144e+09
1.654131e+05, 9.602286e+09
1.655785e+05, 9.243568e+09
1.657441e+05, 9.370775e+09
1.659099e+05, 9.417587e+09
1.660758e+05, 9.301028e+09
1.662419e+05, 9.154649e+09
1.664081e+05, 9.187677e+09
1.665745e+05, 9.200568e+09
1.667411e+05, 9.287737e+09
1.669078e+05, 9.318932e+09
1.670747e+05, 9.113332e+09
1.672418e+05, 9.015296e+09
1.674090e+05, 9.195319e+09
1.675765e+05, 8.951177e+09
1.677440e+05, 9.288534e+09
1.679118e+05, 8.996591e+09
1.680797e+05, 9.003797e+09
1.682478e+05, 8.859561e+09
1.684160e+05, 8.636670e+09
1.685844e+05, 8.981596e+09
1.687530e+05, 8.640665e+09
1.689218e+05, 8.791691e+09
1.690907e+05, 8.822457e+09
1.692598e+05, 8.637598e+09
1.694290e+05, 8.813120e+09
1.695985e+05, 8.785217e+09
1.697681e+05, 8.659489e+09
1.699378e+05, 8.579040e+09
1.701078e+05, 8.705933e+09
1.702779e+05, 8.604122e+09
1.704482e+05, 8.619867e+09
1.706186e+05, 8.536125e+09
1.707892e+05, 8.408634e+09
1.709600e+05, 8.471488e+09
1.711310e+05, 8.439118e+09
1.713021e+05, 8.220402e+09
1.714734e+05, 8.269049e+09
1.716449e+05, 8.316785e+09
1.718165e+05, 8.252751e+09
1.719883e+05, 8.163556e+09
1.721603e+05, 8.197279e+09
1.723325e+05, 8.030590e+09
1.725048e+05, 8.003672e+09
1.726773e+05, 7.997880e+09
1.728500e+05, 7.998563e+09
1.730229e+05, 8.075526e+09
1.731959e+05, 7.992263e+09
1.733691e+05, 7.911895e+09
1.735424e+05, 7.837064e+09
1.737160e+05, 7.858683e+09
1.738897e+05, 7.901240e+09
1.740636e+05, 7.724018e+09
1.742377e+05, 7.904839e+09
1.744119e+05, 7.711206e+09
1.745863e+05, 7.747324e+09
1.747609e+05, 7.612930e+09
1.749357e+05, 7.745298e+09
1.751106e+05, 7.705437e+09
1.752857e+05, 7.449013e+09
1.754610e+05, 7.486606e+09
1.756364e+05, 7.546346e+09
1.758121e+05, 7.550475e+09
1.759879e+05, 7.495398e+09
1.761639e+05, 7.500925e+09
1.763400e+05, 7.341241e+09
1.765164e+05, 7.385134e+09
1.766929e+05, 7.398825e+09
1.768696e+05, 7.428394e+09
1.770465e+05, 7.347579e+09
1.772235e+05, 7.279389e+09
1.774007e+05, 7.278919e+09
1.775781e+05, 7.257549e+09
1.777557e+05, 7.102631e+09
1.779335e+05, 7.269675e+09
1.781114e+05, 7.171851e+09
1.782895e+05, 7.155387e+09
1.784678e+05, 7.131862e+09
1.786463e+05, 7.133164e+09
1.788249e+05, 7.142077e+09
1.790037e+05, 7.148908e+09
1.791827e+05, 7.021051e+09
1.793619e+05, 6.897965e+09
1.795413e+05, 6.919168e+09
1.797208e+05, 7.018842e+09
1.799006e+05, 7.155037e+09
1.800805e+05, 6.910270e+09
1.802605e+05, 6.756724e+09
1.804408e+05, 6.877178e+09
1.806212e+05, 6.778528e+09
1.808019e+05, 6.709661e+09
1.809827e+05, 6.731941e+09
1.811636e+05, 6.832691e+09
1.813448e+05, 6.653915e+09
1.815262e+05, 6.549707e+09
1.817077e+05, 6.499009e+09
1.818894e+05, 6.533662e+09
1.820713e+05, 6.664414e+09
1.822533e+05, 6.565674e+09
1.824356e+05, 6.496382e+09
1.826180e+05, 6.517736e+09
1.828007e+05, 6.436084e+09
1.829835e+05, 6.431485e+09
1.831664e+05, 6.406101e+09
1.833496e+05, 6.506606e+09
1.835330e+05, 6.438536e+09
1.837165e+05, 6.359496e+09
1.839002e+05, 6.334285e+09
1.840841e+05, 6.325532e+09
1.842682e+05, 6.216934e+09
1.844525e+05, 6.398906e+09
1.846369e+05, 6.293449e+09
1.848215e+05, 6.317560e+09
1.850064e+05, 6.111610e+09
1.851914e+05, 6.089611e+09
1.853766e+05, 6.095629e+09
1.855619e+05, 6.026518e+09
1.857475e+05, 6.114613e+09
1.859333e+05, 5.962591e+09
1.861192e+05, 6.023884e+09
1.863053e+05, 5.981298e+09
1.864916e+05, 6.022624e+09
1.866781e+05, 5.959921e+09
1.868648e+05, 6.051558e+09
1.870516e+05, 5.952340e+09
1.872387e+05, 5.803568e+09
1.874259e+05, 5.926539e+09
1.876134e+05, 5.774653e+09
1.878010e+05, 5.861738e+09
1.879888e+05, 5.881236e+09
1.881768e+05, 5.807837e+09
1.883649e+05, 5.779722e+09
1.885533e+05, 5.738621e+09
1.887419e+05, 5.697445e+09
1.889306e+05, 5.679767e+09
1.891195e+05, 5.746941e+09
1.893086e+05, 5.658193e+09
1.894980e+05, 5.608576e+09
1.896875e+05, 5.591540e+09
1.898771e+05, 5.628739e+09
1.900670e+05, 5.534252e+09
1.902571e+05, 5.643136e+09
1.904473e+05, 5.483558e+09
1.906378e+05, 5.584571e+09
1.908284e+05, 5.462354e+09
1.910193e+05, 5.587823e+09
1.912103e+05, 5.543433e+09
1.914015e+05, 5.433567e+09
1.915929e+05, 5.524389e+09
1.917845e+05, 5.294020e+09
1.919763e+05, 5.337227e+09
1.921682e+05, 5.238609e+09
1.923604e+05, 5.280948e+09
1.925528e+05, 5.305927e+09
1.927453e+05, 5.296983e+09
1.929381e+05, 5.214540e+09
1.931310e+05, 5.271338e+09
1.933241e+05, 5.212800e+09
1.935175e+05, 5.159681e+09
1.937110e+05, 5.221499e+09
1.939047e+05, 5.270475e+09
1.940986e+05, 5.124447e+09
1.942927e+05, 5.055448e+09
1.944870e+05, 5.113423e+09
1.946815e+05, 5.125941e+09
1.948762e+05, 5.077570e+09
1.950710e+05, 5.167529e+09
1.952661e+05, 5.056079e+09
1.954614e+05, 5.073262e+09
1.956568e+05, 4.929170e+09
1.958525e+05, 4.865036e+09
1.960483e+05, 4.998016e+09
1.962444e+05, 4.824771e+09
1.964406e+05, 4.832665e+09
1.966371e+05, 4.873945e+09
1.968337e+05, 4.896540e+09
1.970305e+05, 4.928871e+09
1.972276e+05, 4.895786e+09
1.974248e+05, 4.798345e+09
1.976222e+05, 4.837250e+09
1.978198e+05, 4.814996e+09
1.980177e+05, 4.724355e+09
1.982157e+05, 4.700225e+09
1.984139e+05, 4.708512e+09
1.986123e+05, 4.728000e+09
1.988109e+05, 4.694603e+09
1.990097e+05, 4.647939e+09
1.992087e+05, 4.678355e+09
1.994080e+05, 4.575454e+09
1.996074e+05, 4.604757e+09
1.998070e+05, 4.699527e+09