wavelength[Angstrom], flux[erg / (cm3 s)]
1.000000e+03, 7.785498e-39
1.001000e+03, 7.069183e-40
1.002001e+03, 2.150748e-49
1.003003e+03, 5.672115e-48
1.004006e+03, 1.259905e-44
1.005010e+03, 9.011209e-43
1.006015e+03, 5.829379e-47
1.007021e+03, 4.194570e-44
1.008028e+03, 4.470705e-46
1.009036e+03, 5.796308e-50
1.010045e+03, 7.975647e-49
1.011055e+03, 3.384807e-46
1.012066e+03, 9.606765e-48
1.013078e+03, 1.239742e-50
1.014091e+03, 1.726824e-50
1.015105e+03, 2.269853e-44
1.016121e+03, 3.464970e-43
1.017137e+03, 2.163960e-48
1.018154e+03, 4.214343e-43
1.019172e+03, 3.424709e-43
1.020191e+03, 1.376383e-43
1.021211e+03, 9.106795e-41
1.022233e+03, 1.094438e-38
1.023255e+03, 7.738283e-41
1.024278e+03, 2.017177e-43
1.025302e+03, 1.470024e-46
1.026328e+03, 9.646529e-46
1.027354e+03, 5.229582e-41
1.028381e+03, 4.256956e-46
1.029410e+03, 1.863189e-42
1.030439e+03, 5.723332e-41
1.031470e+03, 9.485266e-43
1.032501e+03, 1.453558e-38
1.033533e+03, 7.282063e-38
1.034567e+03, 1.354750e-38
1.035602e+03, 3.495803e-41
1.036637e+03, 1.161199e-44
1.037674e+03, 1.064196e-44
1.038712e+03, 2.943991e-42
1.039750e+03, 1.162396e-41
1.040790e+03, 5.867783e-45
1.041831e+03, 2.399169e-39
1.042873e+03, 4.416723e-39
1.043915e+03, 1.831386e-41
1.044959e+03, 3.848641e-37
1.046004e+03, 7.967003e-36
1.047050e+03, 9.856223e-36
1.048097e+03, 1.066013e-39
1.049145e+03, 6.733494e-45
1.050195e+03, 2.738752e-43
1.051245e+03, 7.740765e-45
1.052296e+03, 6.993907e-42
1.053348e+03, 1.009557e-42
1.054402e+03, 3.699236e-39
1.055456e+03, 1.111921e-37
1.056512e+03, 1.297708e-41
1.057568e+03, 2.531147e-38
1.058626e+03, 2.301518e-37
1.059684e+03, 5.464586e-35
1.060744e+03, 2.428182e-38
1.061805e+03, 8.376476e-40
1.062867e+03, 1.216127e-39
1.063929e+03, 2.586961e-41
1.064993e+03, 2.332762e-43
1.066058e+03, 1.641968e-38
1.067124e+03, 1.357088e-41
1.068191e+03, 9.091223e-36
1.069260e+03, 1.678834e-35
1.070329e+03, 1.535682e-41
1.071399e+03, 3.332111e-35
1.072471e+03, 2.274371e-34
1.073543e+03, 1.984652e-34
1.074617e+03, 8.436162e-39
1.075691e+03, 1.791736e-34
1.076767e+03, 1.195118e-34
1.077844e+03, 6.978979e-42
1.078922e+03, 2.498794e-40
1.080001e+03, 3.126174e-37
1.081081e+03, 2.541929e-38
1.082162e+03, 1.823533e-34
1.083244e+03, 4.158915e-33
1.084327e+03, 8.937129e-37
1.085411e+03, 5.395137e-36
1.086497e+03, 4.443465e-34
1.087583e+03, 4.420987e-32
1.088671e+03, 5.144825e-33
1.089759e+03, 3.207281e-33
1.090849e+03, 6.628338e-31
1.091940e+03, 1.519805e-32
1.093032e+03, 1.722378e-36
1.094125e+03, 1.571477e-38
1.095219e+03, 9.217526e-33
1.096314e+03, 1.199404e-33
1.097411e+03, 7.033384e-33
1.098508e+03, 1.423010e-30
1.099607e+03, 2.065909e-34
1.100706e+03, 2.427913e-34
1.101807e+03, 3.883466e-29
1.102909e+03, 1.231771e-27
1.104012e+03, 1.104381e-30
1.105116e+03, 3.098532e-30
1.106221e+03, 1.343163e-28
1.107327e+03, 4.584317e-30
1.108434e+03, 1.008784e-34
1.109543e+03, 6.328394e-36
1.110652e+03, 2.230709e-28
1.111763e+03, 6.003533e-28
1.112875e+03, 3.111840e-29
1.113988e+03, 8.916511e-29
1.115102e+03, 1.757478e-29
1.116217e+03, 9.603759e-33
1.117333e+03, 5.223326e-26
1.118450e+03, 9.803762e-25
1.119569e+03, 3.483044e-27
1.120688e+03, 3.130700e-28
1.121809e+03, 8.250432e-26
1.122931e+03, 7.759909e-28
1.124054e+03, 2.795747e-27
1.125178e+03, 1.160852e-27
1.126303e+03, 1.760584e-24
1.127429e+03, 3.521883e-25
1.128557e+03, 8.104605e-27
1.129685e+03, 9.123857e-27
1.130815e+03, 2.473768e-25
1.131946e+03, 6.078359e-28
1.133078e+03, 5.306031e-23
1.134211e+03, 3.485159e-22
1.135345e+03, 2.538101e-25
1.136480e+03, 3.835674e-21
1.137617e+03, 4.224313e-20
1.138754e+03, 1.922018e-22
1.139893e+03, 4.951365e-26
1.141033e+03, 4.059894e-21
1.142174e+03, 2.298751e-21
1.143316e+03, 1.323881e-21
1.144460e+03, 3.299386e-24
1.145604e+03, 4.899374e-25
1.146750e+03, 9.145089e-25
1.147896e+03, 3.002462e-22
1.149044e+03, 2.453119e-22
1.150193e+03, 3.198318e-21
1.151344e+03, 1.064720e-22
1.152495e+03, 3.407855e-21
1.153647e+03, 3.303721e-18
1.154801e+03, 6.974479e-19
1.155956e+03, 1.107291e-20
1.157112e+03, 5.032122e-20
1.158269e+03, 2.198206e-20
1.159427e+03, 1.439354e-20
1.160587e+03, 1.742896e-18
1.161747e+03, 1.770141e-22
1.162909e+03, 2.167933e-21
1.164072e+03, 1.055841e-19
1.165236e+03, 1.677673e-19
1.166401e+03, 4.317067e-23
1.167568e+03, 1.556350e-20
1.168735e+03, 4.298137e-20
1.169904e+03, 4.850270e-20
1.171074e+03, 6.735078e-16
1.172245e+03, 5.447337e-16
1.173417e+03, 7.631178e-17
1.174590e+03, 2.986153e-20
1.175765e+03, 2.199236e-19
1.176941e+03, 7.105275e-16
1.178118e+03, 6.302298e-15
1.179296e+03, 1.168995e-18
1.180475e+03, 5.398099e-16
1.181656e+03, 5.553519e-16
1.182837e+03, 2.092321e-16
1.184020e+03, 8.041945e-18
1.185204e+03, 9.617094e-19
1.186389e+03, 4.518999e-17
1.187576e+03, 3.659572e-15
1.188763e+03, 8.099618e-14
1.189952e+03, 7.083929e-14
1.191142e+03, 4.244833e-14
1.192333e+03, 1.254121e-17
1.193526e+03, 1.344010e-15
1.194719e+03, 2.185326e-14
1.195914e+03, 5.495018e-15
1.197110e+03, 5.399808e-14
1.198307e+03, 1.299036e-16
1.199505e+03, 4.252944e-15
1.200705e+03, 6.410833e-16
1.201905e+03, 7.226665e-17
1.203107e+03, 6.658003e-15
1.204310e+03, 2.601475e-14
1.205515e+03, 3.969985e-15
1.206720e+03, 2.150651e-14
1.207927e+03, 2.482154e-14
1.209135e+03, 3.808437e-14
1.210344e+03, 9.180111e-17
1.211554e+03, 8.143104e-15
1.212766e+03, 4.870583e-15
1.213979e+03, 1.330243e-15
1.215193e+03, 1.737654e-17
1.216408e+03, 5.895715e-17
1.217624e+03, 7.086952e-16
1.218842e+03, 1.671437e-15
1.220061e+03, 1.704649e-15
1.221281e+03, 2.991812e-15
1.222502e+03, 1.683867e-14
1.223724e+03, 9.489104e-14
1.224948e+03, 1.111455e-14
1.226173e+03, 1.012733e-13
1.227399e+03, 4.884998e-14
1.228627e+03, 3.433674e-14
1.229855e+03, 2.807374e-15
1.231085e+03, 5.398552e-14
1.232316e+03, 2.494291e-13
1.233549e+03, 1.660829e-13
1.234782e+03, 5.925120e-14
1.236017e+03, 4.843411e-14
1.237253e+03, 6.138332e-14
1.238490e+03, 1.663834e-13
1.239729e+03, 3.243655e-13
1.240968e+03, 6.960570e-14
1.242209e+03, 9.123119e-14
1.243452e+03, 1.765496e-13
1.244695e+03, 2.477594e-13
1.245940e+03, 1.222833e-13
1.247186e+03, 1.688496e-13
1.248433e+03, 2.073408e-13
1.249681e+03, 1.708733e-13
1.250931e+03, 2.858412e-13
1.252182e+03, 2.339867e-13
1.253434e+03, 2.743732e-13
1.254688e+03, 2.998885e-13
1.255942e+03, 1.381257e-13
1.257198e+03, 9.820600e-14
1.258455e+03, 1.653970e-13
1.259714e+03, 3.742197e-13
1.260974e+03, 2.186728e-13
1.262235e+03, 3.201580e-13
1.263497e+03, 4.010081e-13
1.264760e+03, 3.983508e-13
1.266025e+03, 3.160737e-13
1.267291e+03, 2.661129e-13
1.268558e+03, 4.074362e-13
1.269827e+03, 9.173763e-13
1.271097e+03, 6.133615e-13
1.272368e+03, 6.465473e-13
1.273640e+03, 1.202787e-12
1.274914e+03, 3.874105e-13
1.276189e+03, 6.617449e-13
1.277465e+03, 1.003203e-12
1.278742e+03, 6.348004e-13
1.280021e+03, 8.754839e-13
1.281301e+03, 1.763420e-12
1.282582e+03, 8.885189e-13
1.283865e+03, 1.970104e-12
1.285149e+03, 2.526094e-12
1.286434e+03, 1.413367e-12
1.287720e+03, 2.755616e-12
1.289008e+03, 3.349995e-12
1.290297e+03, 4.398314e-12
1.291588e+03, 3.944959e-12
1.292879e+03, 3.353977e-12
1.294172e+03, 6.738764e-12
1.295466e+03, 8.787493e-12
1.296762e+03, 1.082686e-11
1.298058e+03, 8.077709e-12
1.299356e+03, 1.100512e-11
1.300656e+03, 1.861214e-11
1.301956e+03, 2.900360e-11
1.303258e+03, 3.596194e-11
1.304562e+03, 3.879869e-11
1.305866e+03, 3.816269e-11
1.307172e+03, 3.780357e-11
1.308479e+03, 5.323840e-11
1.309788e+03, 5.076441e-11
1.311098e+03, 3.626731e-11
1.312409e+03, 3.062827e-11
1.313721e+03, 3.767695e-11
1.315035e+03, 2.621688e-11
1.316350e+03, 3.311835e-11
1.317666e+03, 4.040444e-11
1.318984e+03, 2.607497e-11
1.320303e+03, 3.527499e-11
1.321623e+03, 3.696524e-11
1.322945e+03, 2.795395e-11
1.324268e+03, 2.716015e-11
1.325592e+03, 3.420298e-11
1.326918e+03, 3.687636e-11
1.328244e+03, 4.735083e-11
1.329573e+03, 5.591039e-11
1.330902e+03, 6.203494e-11
1.332233e+03, 8.015286e-11
1.333565e+03, 5.346257e-11
1.334899e+03, 8.899969e-11
1.336234e+03, 8.903117e-11
1.337570e+03, 9.588296e-11
1.338908e+03, 9.415576e-11
1.340247e+03, 1.035656e-10
1.341587e+03, 1.220326e-10
1.342928e+03, 8.101282e-11
1.344271e+03, 1.128494e-10
1.345616e+03, 8.067060e-11
1.346961e+03, 8.833396e-11
1.348308e+03, 1.096816e-10
1.349656e+03, 9.883466e-11
1.351006e+03, 1.277513e-10
1.352357e+03, 1.735738e-10
1.353709e+03, 2.332152e-10
1.355063e+03, 2.730270e-10
1.356418e+03, 2.233997e-10
1.357775e+03, 2.485567e-10
1.359132e+03, 2.507145e-10
1.360492e+03, 2.032207e-10
1.361852e+03, 1.992714e-10
1.363214e+03, 1.898930e-10
1.364577e+03, 2.294538e-10
1.365942e+03, 1.676522e-10
1.367308e+03, 1.816930e-10
1.368675e+03, 1.457249e-10
1.370044e+03, 1.897288e-10
1.371414e+03, 1.657065e-10
1.372785e+03, 1.740263e-10
1.374158e+03, 1.457722e-10
1.375532e+03, 2.162142e-10
1.376908e+03, 1.685951e-10
1.378284e+03, 2.989906e-10
1.379663e+03, 2.583886e-10
1.381042e+03, 3.338348e-10
1.382423e+03, 4.008273e-10
1.383806e+03, 4.144762e-10
1.385190e+03, 4.516112e-10
1.386575e+03, 5.853685e-10
1.387961e+03, 6.840682e-10
1.389349e+03, 7.935831e-10
1.390739e+03, 7.870928e-10
1.392130e+03, 1.000425e-09
1.393522e+03, 1.117522e-09
1.394915e+03, 1.191307e-09
1.396310e+03, 1.567518e-09
1.397706e+03, 1.849406e-09
1.399104e+03, 2.072729e-09
1.400503e+03, 2.466239e-09
1.401904e+03, 2.717644e-09
1.403306e+03, 2.763429e-09
1.404709e+03, 2.496910e-09
1.406114e+03, 3.418794e-09
1.407520e+03, 3.486701e-09
1.408927e+03, 3.607573e-09
1.410336e+03, 3.728285e-09
1.411747e+03, 3.849632e-09
1.413158e+03, 3.474905e-09
1.414571e+03, 4.460694e-09
1.415986e+03, 4.379490e-09
1.417402e+03, 4.634851e-09
1.418819e+03, 4.805607e-09
1.420238e+03, 6.251619e-09
1.421658e+03, 5.529083e-09
1.423080e+03, 5.345691e-09
1.424503e+03, 5.311538e-09
1.425928e+03, 7.137153e-09
1.427354e+03, 5.749098e-09
1.428781e+03, 5.824498e-09
1.430210e+03, 5.904651e-09
1.431640e+03, 7.387271e-09
1.433072e+03, 6.921784e-09
1.434505e+03, 7.539184e-09
1.435939e+03, 7.546520e-09
1.437375e+03, 8.394825e-09
1.438813e+03, 9.077379e-09
1.440251e+03, 8.525610e-09
1.441692e+03, 8.668463e-09
1.443133e+03, 8.550977e-09
1.444576e+03, 9.557649e-09
1.446021e+03, 9.181669e-09
1.447467e+03, 8.436227e-09
1.448914e+03, 1.014466e-08
1.450363e+03, 1.091041e-08
1.451814e+03, 1.098353e-08
1.453266e+03, 1.190794e-08
1.454719e+03, 1.104270e-08
1.456174e+03, 1.258412e-08
1.457630e+03, 1.038457e-08
1.459087e+03, 1.276802e-08
1.460546e+03, 1.226093e-08
1.462007e+03, 1.368055e-08
1.463469e+03, 1.405663e-08
1.464932e+03, 1.556204e-08
1.466397e+03, 1.772033e-08
1.467864e+03, 1.678773e-08
1.469332e+03, 1.699630e-08
1.470801e+03, 1.976923e-08
1.472272e+03, 1.450928e-08
1.473744e+03, 1.877164e-08
1.475218e+03, 1.950768e-08
1.476693e+03, 1.944320e-08
1.478170e+03, 2.264826e-08
1.479648e+03, 2.287824e-08
1.481128e+03, 2.433053e-08
1.482609e+03, 2.403796e-08
1.484091e+03, 2.592401e-08
1.485575e+03, 2.753741e-08
1.487061e+03, 2.784566e-08
1.488548e+03, 2.926209e-08
1.490037e+03, 3.173095e-08
1.491527e+03, 3.236982e-08
1.493018e+03, 2.893817e-08
1.494511e+03, 2.593539e-08
1.496006e+03, 3.554343e-08
1.497502e+03, 3.548632e-08
1.498999e+03, 3.722190e-08
1.500498e+03, 3.384926e-08
1.501999e+03, 3.594200e-08
1.503501e+03, 3.790096e-08
1.505004e+03, 4.492548e-08
1.506509e+03, 4.534074e-08
1.508016e+03, 4.446062e-08
1.509524e+03, 4.624098e-08
1.511033e+03, 4.707831e-08
1.512544e+03, 3.982529e-08
1.514057e+03, 4.109513e-08
1.515571e+03, 4.261474e-08
1.517086e+03, 4.078486e-08
1.518603e+03, 3.883425e-08
1.520122e+03, 3.771269e-08
1.521642e+03, 3.349055e-08
1.523164e+03, 3.847167e-08
1.524687e+03, 3.826673e-08
1.526212e+03, 3.956148e-08
1.527738e+03, 4.501576e-08
1.529266e+03, 4.015834e-08
1.530795e+03, 3.753107e-08
1.532326e+03, 3.428802e-08
1.533858e+03, 3.504653e-08
1.535392e+03, 3.307106e-08
1.536927e+03, 4.004438e-08
1.538464e+03, 4.213749e-08
1.540003e+03, 3.467558e-08
1.541543e+03, 2.938084e-08
1.543084e+03, 3.993811e-08
1.544627e+03, 3.187750e-08
1.546172e+03, 3.402113e-08
1.547718e+03, 3.857434e-08
1.549266e+03, 3.875497e-08
1.550815e+03, 3.313302e-08
1.552366e+03, 3.111878e-08
1.553918e+03, 4.025201e-08
1.555472e+03, 3.939672e-08
1.557028e+03, 3.950653e-08
1.558585e+03, 4.685679e-08
1.560143e+03, 4.606297e-08
1.561703e+03, 5.174855e-08
1.563265e+03, 4.120978e-08
1.564828e+03, 4.819478e-08
1.566393e+03, 5.841100e-08
1.567960e+03, 4.652883e-08
1.569528e+03, 4.519807e-08
1.571097e+03, 4.694581e-08
1.572668e+03, 3.845763e-08
1.574241e+03, 3.777627e-08
1.575815e+03, 4.004889e-08
1.577391e+03, 6.002727e-08
1.578968e+03, 6.529177e-08
1.580547e+03, 2.654188e-08
1.582128e+03, 1.611975e-08
1.583710e+03, 4.017455e-08
1.585294e+03, 4.357833e-08
1.586879e+03, 4.205787e-08
1.588466e+03, 4.247722e-08
1.590054e+03, 3.730762e-08
1.591644e+03, 7.797830e-08
1.593236e+03, 3.301166e-08
1.594829e+03, 3.333955e-08
1.596424e+03, 2.632497e-08
1.598020e+03, 3.895746e-08
1.599618e+03, 4.408232e-08
1.601218e+03, 3.963865e-08
1.602819e+03, 2.963469e-08
1.604422e+03, 5.570954e-08
1.606027e+03, 3.727380e-08
1.607633e+03, 3.650856e-08
1.609240e+03, 2.123356e-08
1.610849e+03, 4.218001e-08
1.612460e+03, 3.892069e-08
1.614073e+03, 4.088631e-08
1.615687e+03, 7.856226e-08
1.617303e+03, 3.443241e-08
1.618920e+03, 6.583293e-08
1.620539e+03, 4.079207e-08
1.622159e+03, 4.585571e-08
1.623781e+03, 3.264533e-08
1.625405e+03, 4.790972e-08
1.627031e+03, 7.895802e-08
1.628658e+03, 1.354621e-07
1.630286e+03, 1.762832e-07
1.631917e+03, 1.999984e-07
1.633549e+03, 1.991003e-07
1.635182e+03, 1.296104e-07
1.636817e+03, 2.208298e-07
1.638454e+03, 7.208018e-08
1.640093e+03, 8.779281e-08
1.641733e+03, 1.703338e-07
1.643374e+03, 2.766986e-07
1.645018e+03, 3.220472e-07
1.646663e+03, 3.910942e-07
1.648309e+03, 6.616156e-07
1.649958e+03, 4.449964e-07
1.651608e+03, 2.044063e-07
1.653259e+03, 3.900401e-07
1.654913e+03, 3.625914e-07
1.656567e+03, 3.735513e-07
1.658224e+03, 3.829962e-07
1.659882e+03, 5.504888e-07
1.661542e+03, 1.027329e-06
1.663204e+03, 9.944944e-07
1.664867e+03, 1.379347e-06
1.666532e+03, 5.537138e-07
1.668198e+03, 5.025145e-07
1.669866e+03, 3.695019e-07
1.671536e+03, 6.642501e-07
1.673208e+03, 7.142041e-07
1.674881e+03, 1.210413e-06
1.676556e+03, 1.252348e-06
1.678233e+03, 1.684097e-06
1.679911e+03, 1.357513e-06
1.681591e+03, 1.373244e-06
1.683272e+03, 4.254342e-07
1.684956e+03, 9.571471e-07
1.686640e+03, 1.200134e-06
1.688327e+03, 1.307620e-06
1.690015e+03, 2.030377e-06
1.691705e+03, 3.001553e-06
1.693397e+03, 2.214223e-06
1.695091e+03, 4.298091e-06
1.696786e+03, 5.299177e-06
1.698482e+03, 3.134175e-06
1.700181e+03, 1.084937e-06
1.701881e+03, 1.922202e-06
1.703583e+03, 1.188755e-06
1.705287e+03, 3.058516e-06
1.706992e+03, 3.807018e-06
1.708699e+03, 4.621192e-06
1.710408e+03, 5.610728e-06
1.712118e+03, 8.357003e-06
1.713830e+03, 6.261926e-06
1.715544e+03, 9.587100e-06
1.717259e+03, 1.489844e-06
1.718977e+03, 2.584929e-06
1.720696e+03, 2.440099e-06
1.722416e+03, 4.132323e-06
1.724139e+03, 6.505996e-06
1.725863e+03, 7.665027e-06
1.727589e+03, 1.273852e-05
1.729316e+03, 1.667652e-05
1.731046e+03, 2.662554e-05
1.732777e+03, 2.935815e-05
1.734510e+03, 2.494728e-06
1.736244e+03, 3.752920e-06
1.737980e+03, 5.464484e-06
1.739718e+03, 6.364819e-06
1.741458e+03, 7.407863e-06
1.743199e+03, 1.466729e-05
1.744943e+03, 2.191718e-05
1.746688e+03, 1.936976e-05
1.748434e+03, 2.326914e-05
1.750183e+03, 3.862707e-05
1.751933e+03, 2.701486e-05
1.753685e+03, 5.705904e-06
1.755439e+03, 1.151482e-05
1.757194e+03, 1.221673e-05
1.758951e+03, 1.404060e-05
1.760710e+03, 2.360100e-05
1.762471e+03, 2.564052e-05
1.764233e+03, 3.838595e-05
1.765998e+03, 7.248738e-05
1.767764e+03, 7.609720e-05
1.769531e+03, 7.827533e-05
1.771301e+03, 3.416000e-05
1.773072e+03, 9.434590e-06
1.774845e+03, 1.440172e-05
1.776620e+03, 2.401299e-05
1.778397e+03, 2.984387e-05
1.780175e+03, 4.675234e-05
1.781955e+03, 6.950967e-05
1.783737e+03, 8.602148e-05
1.785521e+03, 3.241293e-05
1.787306e+03, 1.545757e-04
1.789094e+03, 1.633918e-04
1.790883e+03, 1.006136e-04
1.792674e+03, 2.055166e-05
1.794466e+03, 4.076220e-05
1.796261e+03, 6.236450e-05
1.798057e+03, 6.884574e-05
1.799855e+03, 1.129938e-04
1.801655e+03, 1.878127e-04
1.803457e+03, 1.654726e-04
1.805260e+03, 1.925214e-04
1.807065e+03, 2.897060e-04
1.808872e+03, 3.411120e-04
1.810681e+03, 2.557395e-04
1.812492e+03, 3.639614e-05
1.814304e+03, 5.272883e-05
1.816119e+03, 8.381746e-05
1.817935e+03, 2.340069e-04
1.819753e+03, 1.036055e-04
1.821573e+03, 2.164926e-04
1.823394e+03, 4.601125e-04
1.825218e+03, 4.745522e-04
1.827043e+03, 1.619816e-04
1.828870e+03, 2.954149e-04
1.830699e+03, 6.273205e-04
1.832529e+03, 1.029046e-04
1.834362e+03, 9.325561e-05
1.836196e+03, 1.340162e-04
1.838032e+03, 1.806227e-04
1.839871e+03, 3.404375e-04
1.841710e+03, 2.599261e-04
1.843552e+03, 6.618477e-04
1.845396e+03, 1.142192e-03
1.847241e+03, 1.007113e-03
1.849088e+03, 9.847519e-04
1.850937e+03, 8.841575e-04
1.852788e+03, 4.973995e-04
1.854641e+03, 1.589595e-04
1.856496e+03, 1.928712e-04
1.858352e+03, 3.113112e-04
1.860211e+03, 6.492953e-04
1.862071e+03, 7.433006e-04
1.863933e+03, 8.616960e-04
1.865797e+03, 9.776982e-04
1.867663e+03, 2.548162e-03
1.869530e+03, 3.117871e-03
1.871400e+03, 2.925249e-03
1.873271e+03, 1.563185e-03
1.875144e+03, 9.066279e-04
1.877020e+03, 3.880715e-04
1.878897e+03, 5.196696e-04
1.880776e+03, 9.753075e-04
1.882656e+03, 1.568282e-03
1.884539e+03, 2.577887e-03
1.886424e+03, 2.211345e-03
1.888310e+03, 2.769635e-03
1.890198e+03, 3.306871e-03
1.892088e+03, 7.706269e-03
1.893981e+03, 5.695974e-03
1.895875e+03, 2.716125e-03
1.897770e+03, 1.813016e-03
1.899668e+03, 1.182417e-03
1.901568e+03, 1.858324e-03
1.903469e+03, 3.183953e-03
1.905373e+03, 2.983128e-03
1.907278e+03, 3.872093e-03
1.909186e+03, 8.047224e-03
1.911095e+03, 8.394264e-03
1.913006e+03, 1.474265e-02
1.914919e+03, 1.449357e-02
1.916834e+03, 1.413024e-02
1.918751e+03, 9.495050e-03
1.920669e+03, 5.848083e-03
1.922590e+03, 4.116004e-03
1.924513e+03, 6.229103e-03
1.926437e+03, 7.381364e-03
1.928364e+03, 9.047869e-03
1.930292e+03, 2.086519e-02
1.932222e+03, 2.267856e-02
1.934154e+03, 1.332713e-02
1.936089e+03, 1.995652e-02
1.938025e+03, 1.668153e-02
1.939963e+03, 3.504952e-02
1.941903e+03, 4.077276e-02
1.943845e+03, 1.161519e-02
1.945788e+03, 8.137880e-03
1.947734e+03, 1.371208e-02
1.949682e+03, 9.413519e-03
1.951632e+03, 1.809949e-02
1.953583e+03, 3.585613e-02
1.955537e+03, 3.311608e-02
1.957492e+03, 3.728500e-02
1.959450e+03, 3.765217e-02
1.961409e+03, 2.356889e-02
1.963371e+03, 4.438314e-02
1.965334e+03, 4.902273e-02
1.967299e+03, 4.046388e-02
1.969267e+03, 2.333693e-02
1.971236e+03, 4.466736e-02
1.973207e+03, 3.994690e-02
1.975180e+03, 6.383199e-02
1.977156e+03, 8.259472e-02
1.979133e+03, 1.633547e-01
1.981112e+03, 1.588362e-01
1.983093e+03, 1.930894e-01
1.985076e+03, 3.205404e-01
1.987061e+03, 1.693206e-01
1.989048e+03, 1.840030e-01
1.991037e+03, 8.268507e-02
1.993028e+03, 9.279721e-02
1.995021e+03, 5.152073e-02
1.997016e+03, 6.257592e-02
1.999013e+03, 5.016379e-02
2.001012e+03, 8.444485e-02
2.003013e+03, 8.916975e-02
2.005016e+03, 8.854215e-02
2.007021e+03, 1.681517e-01
2.009028e+03, 1.865982e-01
2.011037e+03, 2.648413e-01
2.013048e+03, 3.231123e-01
2.015062e+03, 1.959394e-01
2.017077e+03, 8.507131e-02
2.019094e+03, 1.251214e-01
2.021113e+03, 1.033927e-01
2.023134e+03, 9.573496e-02
2.025157e+03, 3.309541e-02
2.027182e+03, 1.856460e-02
2.029209e+03, 1.182136e-01
2.031239e+03, 1.745355e-01
2.033270e+03, 2.470006e-01
2.035303e+03, 2.154429e-01
2.037338e+03, 2.815665e-01
2.039376e+03, 3.586897e-01
2.041415e+03, 1.611111e-01
2.043457e+03, 1.715199e-01
2.045500e+03, 1.715089e-01
2.047545e+03, 3.247253e-01
2.049593e+03, 5.818799e-01
2.051643e+03, 3.288794e-01
2.053694e+03, 3.847398e-01
2.055748e+03, 4.522559e-01
2.057804e+03, 1.042960e+00
2.059861e+03, 6.514940e-01
2.061921e+03, 2.503661e-01
2.063983e+03, 3.129069e-01
2.066047e+03, 2.794117e-01
2.068113e+03, 4.323073e-01
2.070181e+03, 3.492532e-01
2.072252e+03, 3.324394e-01
2.074324e+03, 1.776930e-01
2.076398e+03, 3.106670e-01
2.078475e+03, 3.154701e-01
2.080553e+03, 8.459682e-01
2.082634e+03, 3.092108e-01
2.084716e+03, 2.590624e-01
2.086801e+03, 5.493047e-01
2.088888e+03, 6.597405e-01
2.090977e+03, 6.682504e-01
2.093068e+03, 4.778137e-01
2.095161e+03, 1.903219e-01
2.097256e+03, 4.348372e-01
2.099353e+03, 4.379291e-01
2.101452e+03, 4.519891e-01
2.103554e+03, 4.836767e-01
2.105657e+03, 3.253461e-01
2.107763e+03, 2.174459e-01
2.109871e+03, 2.515659e-01
2.111981e+03, 5.737486e-01
2.114093e+03, 3.362682e-01
2.116207e+03, 2.787242e-01
2.118323e+03, 4.558944e-01
2.120441e+03, 7.226396e-01
2.122562e+03, 1.250731e+00
2.124684e+03, 1.315925e+00
2.126809e+03, 2.234059e-01
2.128936e+03, 3.233936e-01
2.131065e+03, 5.676435e-01
2.133196e+03, 6.974043e-01
2.135329e+03, 6.709011e-01
2.137464e+03, 6.396239e-01
2.139602e+03, 1.089284e-01
2.141741e+03, 1.430334e-01
2.143883e+03, 3.798852e-01
2.146027e+03, 6.238730e-01
2.148173e+03, 2.904146e-01
2.150321e+03, 3.724662e-01
2.152472e+03, 7.379291e-01
2.154624e+03, 7.284637e-01
2.156779e+03, 1.304962e+00
2.158935e+03, 7.545402e-01
2.161094e+03, 9.346902e-01
2.163255e+03, 3.390925e-01
2.165419e+03, 5.181472e-01
2.167584e+03, 5.810718e-01
2.169752e+03, 7.052535e-01
2.171921e+03, 8.041645e-01
2.174093e+03, 1.205996e+00
2.176268e+03, 1.640845e+00
2.178444e+03, 1.168163e-01
2.180622e+03, 2.850707e-01
2.182803e+03, 2.851125e-01
2.184986e+03, 5.322103e-01
2.187171e+03, 4.923875e-01
2.189358e+03, 8.958392e-01
2.191547e+03, 1.250299e+00
2.193739e+03, 2.065189e+00
2.195932e+03, 2.308124e+00
2.198128e+03, 2.127726e+00
2.200327e+03, 3.661613e-01
2.202527e+03, 1.106082e+00
2.204729e+03, 1.081047e+00
2.206934e+03, 2.059963e+00
2.209141e+03, 1.045725e+00
2.211350e+03, 3.015979e+00
2.213562e+03, 2.566621e+00
2.215775e+03, 1.358543e+00
2.217991e+03, 4.010801e-01
2.220209e+03, 3.935103e-01
2.222429e+03, 3.238130e-01
2.224651e+03, 8.481627e-01
2.226876e+03, 1.036801e+00
2.229103e+03, 1.696172e+00
2.231332e+03, 1.596612e+00
2.233563e+03, 3.740826e+00
2.235797e+03, 5.899279e+00
2.238033e+03, 8.859888e-01
2.240271e+03, 1.362874e+00
2.242511e+03, 1.745356e+00
2.244754e+03, 3.319880e+00
2.246998e+03, 3.483000e+00
2.249245e+03, 6.721892e+00
2.251495e+03, 9.160301e+00
2.253746e+03, 1.195808e+01
2.256000e+03, 9.926519e+00
2.258256e+03, 3.607432e-01
2.260514e+03, 4.386205e-01
2.262775e+03, 1.064270e+00
2.265037e+03, 1.619243e+00
2.267302e+03, 1.912263e+00
2.269570e+03, 2.844970e+00
2.271839e+03, 3.717417e+00
2.274111e+03, 7.507429e+00
2.276385e+03, 5.944708e+00
2.278662e+03, 4.692884e+00
2.280940e+03, 4.240063e+00
2.283221e+03, 5.858424e+00
2.285504e+03, 6.374894e+00
2.287790e+03, 7.502691e+00
2.290078e+03, 1.022910e+01
2.292368e+03, 2.181024e+01
2.294660e+03, 1.900684e+01
2.296955e+03, 2.253867e+01
2.299252e+03, 7.717210e+00
2.301551e+03, 6.966093e-01
2.303853e+03, 1.035090e+00
2.306156e+03, 1.839379e+00
2.308463e+03, 3.096542e+00
2.310771e+03, 4.597399e+00
2.313082e+03, 8.553511e+00
2.315395e+03, 2.058385e+01
2.317710e+03, 2.962788e+01
2.320028e+03, 2.377554e+01
2.322348e+03, 1.212350e+01
2.324670e+03, 1.709633e+01
2.326995e+03, 2.072306e+01
2.329322e+03, 2.545557e+01
2.331651e+03, 5.121373e+01
2.333983e+03, 6.309619e+01
2.336317e+03, 6.702340e+01
2.338653e+03, 6.735325e+01
2.340992e+03, 1.855734e+02
2.343333e+03, 6.164804e+01
2.345676e+03, 2.842317e+00
2.348022e+03, 2.515597e+00
2.350370e+03, 5.446126e+00
2.352720e+03, 6.109516e+00
2.355073e+03, 9.161769e+00
2.357428e+03, 1.328663e+01
2.359786e+03, 1.940262e+01
2.362145e+03, 2.561871e+01
2.364508e+03, 4.150059e+01
2.366872e+03, 4.453114e+00
2.369239e+03, 1.133713e+01
2.371608e+03, 1.327041e+01
2.373980e+03, 1.515805e+01
2.376354e+03, 2.841906e+01
2.378730e+03, 3.765938e+01
2.381109e+03, 4.249788e+01
2.383490e+03, 9.797937e+01
2.385873e+03, 9.120230e+01
2.388259e+03, 6.325933e+01
2.390648e+03, 3.288948e+01
2.393038e+03, 3.254029e+01
2.395431e+03, 5.457019e+01
2.397827e+03, 1.391762e+02
2.400225e+03, 1.958729e+02
2.402625e+03, 1.481335e+02
2.405027e+03, 4.104370e+02
2.407432e+03, 5.991114e+01
2.409840e+03, 4.213116e+02
2.412250e+03, 8.043243e+01
2.414662e+03, 1.406342e+01
2.417077e+03, 1.722884e+01
2.419494e+03, 2.234662e+01
2.421913e+03, 3.920338e+01
2.424335e+03, 3.213900e+01
2.426759e+03, 8.403547e+01
2.429186e+03, 2.623578e+02
2.431615e+03, 2.945693e+02
2.434047e+03, 1.686622e+02
2.436481e+03, 2.158660e+02
2.438918e+03, 3.380878e+02
2.441356e+03, 7.601832e+02
2.443798e+03, 1.091165e+03
2.446242e+03, 1.404447e+03
2.448688e+03, 6.567354e+02
2.451137e+03, 7.242722e+02
2.453588e+03, 3.141613e+03
2.456041e+03, 2.469425e+03
2.458497e+03, 8.467520e+02
2.460956e+03, 1.874614e+02
2.463417e+03, 1.411308e+02
2.465880e+03, 5.518253e+02
2.468346e+03, 1.465085e+03
2.470814e+03, 9.365576e+02
2.473285e+03, 4.841200e+02
2.475758e+03, 8.651011e+02
2.478234e+03, 1.379498e+03
2.480712e+03, 4.283142e+02
2.483193e+03, 1.530414e+02
2.485676e+03, 1.480585e+02
2.488162e+03, 5.576979e+01
2.490650e+03, 4.133471e+01
2.493141e+03, 1.634056e+02
2.495634e+03, 2.811068e+02
2.498130e+03, 3.320750e+02
2.500628e+03, 3.776202e+02
2.503128e+03, 7.540032e+02
2.505632e+03, 1.134468e+03
2.508137e+03, 1.064116e+03
2.510645e+03, 3.161473e+02
2.513156e+03, 3.960938e+02
2.515669e+03, 1.052371e+03
2.518185e+03, 6.543114e+02
2.520703e+03, 6.511859e+02
2.523224e+03, 1.183359e+02
2.525747e+03, 9.850903e+02
2.528273e+03, 4.390390e+02
2.530801e+03, 1.079947e+03
2.533332e+03, 4.902160e+03
2.535865e+03, 3.378027e+03
2.538401e+03, 9.164340e+03
2.540939e+03, 4.018736e+03
2.543480e+03, 6.071714e+03
2.546024e+03, 1.934261e+03
2.548570e+03, 7.483921e+03
2.551118e+03, 8.108211e+03
2.553669e+03, 3.071771e+04
2.556223e+03, 2.959393e+04
2.558779e+03, 1.276636e+04
2.561338e+03, 1.586162e+04
2.563899e+03, 2.901970e+03
2.566463e+03, 8.317177e+02
2.569030e+03, 1.715271e+03
2.571599e+03, 4.218010e+03
2.574170e+03, 4.966421e+03
2.576745e+03, 1.103945e+04
2.579321e+03, 2.005266e+04
2.581901e+03, 1.109876e+04
2.584483e+03, 1.100050e+04
2.587067e+03, 6.849829e+03
2.589654e+03, 2.123055e+03
2.592244e+03, 2.923919e+03
2.594836e+03, 6.115250e+03
2.597431e+03, 2.677933e+04
2.600028e+03, 2.097001e+04
2.602628e+03, 3.438623e+04
2.605231e+03, 6.055711e+04
2.607836e+03, 3.202825e+04
2.610444e+03, 4.785014e+04
2.613054e+03, 1.594216e+04
2.615667e+03, 3.725371e+04
2.618283e+03, 3.082673e+04
2.620901e+03, 7.941492e+04
2.623522e+03, 7.324950e+04
2.626146e+03, 2.298254e+05
2.628772e+03, 1.693249e+05
2.631401e+03, 2.332392e+05
2.634032e+03, 1.742320e+05
2.636666e+03, 3.804460e+05
2.639303e+03, 9.883550e+05
2.641942e+03, 3.402887e+05
2.644584e+03, 8.516077e+04
2.647229e+03, 1.088730e+04
2.649876e+03, 4.178329e+04
2.652526e+03, 5.360541e+04
2.655178e+03, 2.493296e+05
2.657834e+03, 2.052017e+05
2.660491e+03, 1.589679e+05
2.663152e+03, 2.363364e+05
2.665815e+03, 1.834740e+05
2.668481e+03, 9.410862e+04
2.671149e+03, 1.838111e+04
2.673820e+03, 5.979367e+04
2.676494e+03, 8.364132e+04
2.679171e+03, 8.988720e+04
2.681850e+03, 9.425896e+04
2.684532e+03, 3.923497e+05
2.687216e+03, 3.256261e+05
2.689904e+03, 1.434706e+05
2.692593e+03, 1.489546e+05
2.695286e+03, 9.087088e+04
2.697981e+03, 9.963346e+04
2.700679e+03, 1.317300e+05
2.703380e+03, 1.595071e+05
2.706083e+03, 2.351910e+05
2.708789e+03, 2.036346e+05
2.711498e+03, 1.379355e+05
2.714210e+03, 1.092882e+05
2.716924e+03, 5.124520e+04
2.719641e+03, 6.241689e+03
2.722360e+03, 1.385085e+04
2.725083e+03, 3.258264e+04
2.727808e+03, 1.076259e+05
2.730536e+03, 1.095918e+05
2.733266e+03, 8.204705e+04
2.736000e+03, 7.200726e+04
2.738736e+03, 4.517745e+04
2.741474e+03, 7.894163e+04
2.744216e+03, 2.119324e+04
2.746960e+03, 1.292757e+05
2.749707e+03, 7.804431e+04
2.752457e+03, 9.345679e+04
2.755209e+03, 1.125082e+05
2.757964e+03, 7.165950e+04
2.760722e+03, 1.923731e+05
2.763483e+03, 1.976856e+05
2.766246e+03, 3.171291e+05
2.769013e+03, 2.651622e+05
2.771782e+03, 1.507938e+05
2.774554e+03, 2.281132e+05
2.777328e+03, 3.140144e+05
2.780105e+03, 1.732573e+05
2.782886e+03, 1.262481e+05
2.785668e+03, 1.465324e+05
2.788454e+03, 9.182791e+04
2.791243e+03, 6.921575e+04
2.794034e+03, 1.015839e+04
2.796828e+03, 1.628121e+03
2.799625e+03, 1.240131e+03
2.802424e+03, 4.342071e+03
2.805227e+03, 4.794217e+04
2.808032e+03, 6.520566e+04
2.810840e+03, 8.059585e+04
2.813651e+03, 7.374231e+04
2.816464e+03, 6.958440e+04
2.819281e+03, 6.230365e+04
2.822100e+03, 4.886283e+04
2.824922e+03, 4.523775e+04
2.827747e+03, 3.514084e+04
2.830575e+03, 3.197555e+04
2.833406e+03, 2.373300e+04
2.836239e+03, 1.871676e+04
2.839075e+03, 1.466682e+04
2.841914e+03, 1.007600e+04
2.844756e+03, 6.673271e+03
2.847601e+03, 3.696763e+03
2.850448e+03, 1.288763e+03
2.853299e+03, 2.172463e+02
2.856152e+03, 1.898176e+03
2.859008e+03, 4.897454e+03
2.861867e+03, 9.046198e+03
2.864729e+03, 1.355851e+04
2.867594e+03, 2.095380e+04
2.870462e+03, 2.800942e+04
2.873332e+03, 3.840977e+04
2.876205e+03, 4.373936e+04
2.879082e+03, 6.728211e+04
2.881961e+03, 8.454064e+04
2.884843e+03, 1.100774e+05
2.887727e+03, 1.286348e+05
2.890615e+03, 1.679349e+05
2.893506e+03, 2.012494e+05
2.896399e+03, 2.518933e+05
2.899296e+03, 3.009682e+05
2.902195e+03, 3.613327e+05
2.905097e+03, 4.329674e+05
2.908002e+03, 5.204759e+05
2.910910e+03, 4.883282e+05
2.913821e+03, 3.591303e+05
2.916735e+03, 3.073460e+05
2.919652e+03, 9.375892e+05
2.922571e+03, 1.221587e+06
2.925494e+03, 1.284223e+06
2.928420e+03, 5.653674e+05
2.931348e+03, 7.853527e+05
2.934279e+03, 1.004974e+06
2.937214e+03, 2.441868e+05
2.940151e+03, 7.233160e+05
2.943091e+03, 4.627804e+05
2.946034e+03, 7.363973e+05
2.948980e+03, 2.977877e+05
2.951929e+03, 1.089913e+06
2.954881e+03, 4.177416e+05
2.957836e+03, 5.539247e+05
2.960794e+03, 1.532153e+06
2.963754e+03, 1.021443e+06
2.966718e+03, 1.562845e+05
2.969685e+03, 2.308047e+05
2.972655e+03, 3.080036e+05
2.975627e+03, 5.649087e+05
2.978603e+03, 1.555446e+06
2.981581e+03, 7.133193e+05
2.984563e+03, 2.231447e+05
2.987548e+03, 8.171725e+05
2.990535e+03, 1.432099e+06
2.993526e+03, 6.351036e+05
2.996519e+03, 5.212729e+05
2.999516e+03, 1.062901e+06
3.002515e+03, 2.272725e+05
3.005518e+03, 1.213071e+06
3.008523e+03, 5.118824e+05
3.011532e+03, 1.531462e+06
3.014543e+03, 1.294734e+06
3.017558e+03, 7.180460e+05
3.020575e+03, 1.404489e+05
3.023596e+03, 2.609447e+05
3.026620e+03, 5.098174e+05
3.029646e+03, 2.192600e+06
3.032676e+03, 3.128605e+06
3.035709e+03, 2.111080e+06
3.038744e+03, 7.010402e+05
3.041783e+03, 2.741986e+06
3.044825e+03, 1.325819e+06
3.047870e+03, 7.407974e+05
3.050918e+03, 1.132104e+06
3.053968e+03, 3.042559e+06
3.057022e+03, 2.746223e+06
3.060079e+03, 6.328643e+05
3.063140e+03, 3.994623e+06
3.066203e+03, 9.143090e+06
3.069269e+03, 1.603047e+07
3.072338e+03, 2.458481e+07
3.075410e+03, 2.525523e+07
3.078486e+03, 3.372277e+07
3.081564e+03, 1.244415e+07
3.084646e+03, 1.562946e+07
3.087731e+03, 3.422579e+07
3.090818e+03, 2.491677e+07
3.093909e+03, 1.012148e+07
3.097003e+03, 2.398427e+07
3.100100e+03, 1.024334e+07
3.103200e+03, 8.201964e+06
3.106303e+03, 4.140108e+07
3.109410e+03, 1.380492e+08
3.112519e+03, 1.600394e+08
3.115632e+03, 9.952245e+07
3.118747e+03, 1.868181e+08
3.121866e+03, 2.068377e+08
3.124988e+03, 3.034682e+08
3.128113e+03, 2.887561e+08
3.131241e+03, 1.714445e+08
3.134372e+03, 1.817696e+07
3.137507e+03, 8.916196e+07
3.140644e+03, 2.467006e+08
3.143785e+03, 3.329439e+08
3.146928e+03, 2.461065e+08
3.150075e+03, 5.437996e+08
3.153225e+03, 4.604522e+08
3.156379e+03, 9.683340e+08
3.159535e+03, 3.868959e+08
3.162695e+03, 8.368743e+08
3.165857e+03, 9.583702e+08
3.169023e+03, 1.162155e+09
3.172192e+03, 8.928533e+08
3.175364e+03, 1.183262e+09
3.178540e+03, 9.829061e+08
3.181718e+03, 2.031276e+08
3.184900e+03, 4.623148e+07
3.188085e+03, 2.010161e+08
3.191273e+03, 1.116177e+08
3.194464e+03, 2.552902e+07
3.197659e+03, 5.894158e+07
3.200856e+03, 8.561970e+07
3.204057e+03, 5.288511e+08
3.207261e+03, 9.787881e+08
3.210469e+03, 1.088263e+09
3.213679e+03, 4.764976e+08
3.216893e+03, 1.420153e+08
3.220110e+03, 5.218471e+08
3.223330e+03, 3.905882e+08
3.226553e+03, 1.321889e+08
3.229780e+03, 1.989344e+08
3.233009e+03, 9.785238e+07
3.236242e+03, 2.102866e+07
3.239479e+03, 4.351696e+08
3.242718e+03, 2.521383e+08
3.245961e+03, 6.887148e+07
3.249207e+03, 3.808009e+07
3.252456e+03, 9.215270e+08
3.255708e+03, 2.107567e+09
3.258964e+03, 2.883503e+09
3.262223e+03, 2.873944e+09
3.265485e+03, 4.946435e+08
3.268751e+03, 1.968008e+09
3.272020e+03, 5.618606e+08
3.275292e+03, 1.492658e+08
3.278567e+03, 2.048672e+09
3.281845e+03, 2.340468e+09
3.285127e+03, 1.943979e+09
3.288412e+03, 1.442732e+09
3.291701e+03, 2.302013e+09
3.294993e+03, 1.490694e+09
3.298288e+03, 4.701217e+08
3.301586e+03, 1.819552e+07
3.304887e+03, 6.358653e+06
3.308192e+03, 2.986593e+08
3.311500e+03, 9.072106e+08
3.314812e+03, 6.660920e+08
3.318127e+03, 5.803120e+08
3.321445e+03, 4.322720e+08
3.324766e+03, 2.381630e+09
3.328091e+03, 5.488125e+09
3.331419e+03, 5.481093e+09
3.334751e+03, 3.352842e+09
3.338085e+03, 3.835117e+09
3.341423e+03, 2.832434e+09
3.344765e+03, 2.219069e+09
3.348110e+03, 2.741940e+09
3.351458e+03, 2.347623e+08
3.354809e+03, 6.110957e+08
3.358164e+03, 2.551004e+09
3.361522e+03, 7.905227e+08
3.364884e+03, 8.058894e+08
3.368249e+03, 1.893002e+08
3.371617e+03, 7.345154e+07
3.374988e+03, 1.656392e+08
3.378363e+03, 5.684309e+08
3.381742e+03, 1.624538e+08
3.385124e+03, 8.792589e+08
3.388509e+03, 6.014190e+08
3.391897e+03, 8.777096e+07
3.395289e+03, 1.277652e+08
3.398684e+03, 8.299286e+08
3.402083e+03, 1.052585e+09
3.405485e+03, 4.130172e+08
3.408891e+03, 2.975567e+08
3.412300e+03, 7.162179e+07
3.415712e+03, 1.501107e+07
3.419128e+03, 1.250269e+08
3.422547e+03, 2.305501e+08
3.425969e+03, 1.452220e+08
3.429395e+03, 1.911370e+08
3.432825e+03, 5.462199e+07
3.436257e+03, 3.848927e+07
3.439694e+03, 1.281304e+07
3.443133e+03, 4.247143e+06
3.446576e+03, 1.325629e+07
3.450023e+03, 5.772807e+07
3.453473e+03, 4.698068e+07
3.456927e+03, 1.005986e+08
3.460383e+03, 6.476590e+07
3.463844e+03, 4.449165e+07
3.467308e+03, 2.243450e+07
3.470775e+03, 1.215537e+08
3.474246e+03, 4.617245e+07
3.477720e+03, 2.083153e+07
3.481198e+03, 1.740955e+08
3.484679e+03, 1.748885e+08
3.488164e+03, 1.262352e+08
3.491652e+03, 1.641231e+07
3.495143e+03, 5.819120e+07
3.498639e+03, 4.519642e+07
3.502137e+03, 9.207163e+07
3.505639e+03, 5.147114e+08
3.509145e+03, 3.947590e+08
3.512654e+03, 9.877243e+07
3.516167e+03, 5.870682e+07
3.519683e+03, 2.072905e+08
3.523203e+03, 7.763841e+07
3.526726e+03, 1.057114e+07
3.530253e+03, 1.458159e+08
3.533783e+03, 7.888934e+08
3.537317e+03, 2.418396e+09
3.540854e+03, 2.991806e+09
3.544395e+03, 4.118126e+09
3.547939e+03, 2.457063e+09
3.551487e+03, 1.439940e+09
3.555039e+03, 1.452732e+09
3.558594e+03, 9.391223e+08
3.562152e+03, 7.106580e+08
3.565714e+03, 2.430617e+08
3.569280e+03, 1.534164e+08
3.572849e+03, 9.514507e+07
3.576422e+03, 4.157090e+07
3.579999e+03, 7.962707e+06
3.583579e+03, 5.855779e+07
3.587162e+03, 7.446133e+07
3.590749e+03, 7.832941e+07
3.594340e+03, 8.285988e+06
3.597934e+03, 6.101012e+07
3.601532e+03, 1.226075e+08
3.605134e+03, 2.584221e+07
3.608739e+03, 4.173773e+07
3.612348e+03, 1.739437e+08
3.615960e+03, 5.557984e+08
3.619576e+03, 1.977049e+08
3.623196e+03, 9.227639e+08
3.626819e+03, 1.525264e+09
3.630446e+03, 8.862924e+08
3.634076e+03, 8.461733e+08
3.637710e+03, 2.318264e+09
3.641348e+03, 3.483351e+09
3.644989e+03, 1.098543e+09
3.648634e+03, 2.153949e+08
3.652283e+03, 8.934890e+08
3.655935e+03, 2.993396e+09
3.659591e+03, 4.803804e+09
3.663251e+03, 3.781196e+09
3.666914e+03, 4.463965e+09
3.670581e+03, 2.274393e+09
3.674251e+03, 1.501589e+09
3.677926e+03, 5.584137e+08
3.681604e+03, 9.766363e+07
3.685285e+03, 4.748825e+08
3.688971e+03, 6.705138e+08
3.692660e+03, 1.440346e+09
3.696352e+03, 1.252602e+09
3.700049e+03, 9.215647e+08
3.703749e+03, 3.203105e+08
3.707452e+03, 5.873941e+07
3.711160e+03, 2.198556e+08
3.714871e+03, 1.910635e+08
3.718586e+03, 5.952278e+07
3.722304e+03, 1.618641e+07
3.726027e+03, 1.228158e+08
3.729753e+03, 1.683219e+08
3.733482e+03, 7.386794e+07
3.737216e+03, 2.604550e+07
3.740953e+03, 9.915348e+07
3.744694e+03, 7.582796e+07
3.748439e+03, 2.852141e+07
3.752187e+03, 1.951118e+08
3.755939e+03, 5.129421e+08
3.759695e+03, 4.198785e+08
3.763455e+03, 7.047763e+08
3.767219e+03, 6.877871e+08
3.770986e+03, 2.277885e+09
3.774757e+03, 3.102411e+09
3.778532e+03, 3.693866e+09
3.782310e+03, 4.663748e+09
3.786092e+03, 2.507340e+09
3.789878e+03, 1.734730e+09
3.793668e+03, 3.919177e+09
3.797462e+03, 1.887754e+09
3.801259e+03, 2.137643e+09
3.805061e+03, 6.046210e+09
3.808866e+03, 3.643411e+09
3.812675e+03, 2.604367e+09
3.816487e+03, 1.159573e+09
3.820304e+03, 4.773350e+08
3.824124e+03, 1.685829e+08
3.827948e+03, 2.802225e+08
3.831776e+03, 1.068856e+09
3.835608e+03, 9.165869e+08
3.839444e+03, 1.630083e+09
3.843283e+03, 1.340502e+09
3.847126e+03, 1.369240e+09
3.850973e+03, 6.958610e+08
3.854824e+03, 3.329694e+08
3.858679e+03, 5.895407e+07
3.862538e+03, 9.483917e+07
3.866400e+03, 3.940784e+08
3.870267e+03, 9.583464e+08
3.874137e+03, 6.142032e+08
3.878011e+03, 3.435067e+08
3.881889e+03, 3.797517e+08
3.885771e+03, 2.141879e+08
3.889657e+03, 3.489892e+08
3.893547e+03, 7.764712e+08
3.897440e+03, 2.855179e+08
3.901338e+03, 3.123317e+08
3.905239e+03, 1.029738e+09
3.909144e+03, 1.163222e+09
3.913053e+03, 3.527757e+09
3.916966e+03, 2.299749e+09
3.920883e+03, 4.381401e+08
3.924804e+03, 3.047318e+08
3.928729e+03, 2.595665e+08
3.932658e+03, 4.746440e+08
3.936590e+03, 2.345949e+09
3.940527e+03, 3.455684e+09
3.944467e+03, 1.077501e+09
3.948412e+03, 2.809225e+09
3.952360e+03, 5.850012e+09
3.956313e+03, 4.791667e+09
3.960269e+03, 1.881679e+09
3.964229e+03, 1.546077e+09
3.968194e+03, 4.724617e+09
3.972162e+03, 8.058429e+09
3.976134e+03, 1.185434e+10
3.980110e+03, 1.569438e+10
3.984090e+03, 1.534021e+10
3.988074e+03, 2.299231e+10
3.992062e+03, 1.785848e+10
3.996054e+03, 2.473297e+10
4.000050e+03, 1.686275e+10
4.004050e+03, 3.218155e+10
4.008055e+03, 1.949797e+10
4.012063e+03, 2.758084e+10
4.016075e+03, 3.352621e+10
4.020091e+03, 2.098192e+10
4.024111e+03, 1.050465e+10
4.028135e+03, 2.812660e+09
4.032163e+03, 3.108560e+07
4.036195e+03, 2.404746e+08
4.040231e+03, 4.062579e+09
4.044272e+03, 1.651807e+09
4.048316e+03, 1.347551e+09
4.052364e+03, 1.972674e+10
4.056417e+03, 2.409047e+10
4.060473e+03, 3.013720e+10
4.064533e+03, 1.429258e+10
4.068598e+03, 3.110652e+10
4.072667e+03, 1.886994e+10
4.076739e+03, 2.775666e+10
4.080816e+03, 3.383949e+10
4.084897e+03, 3.286120e+10
4.088982e+03, 3.752540e+10
4.093071e+03, 2.550243e+10
4.097164e+03, 2.799757e+10
4.101261e+03, 1.602861e+10
4.105362e+03, 1.635515e+10
4.109468e+03, 2.296491e+10
4.113577e+03, 1.645675e+10
4.117691e+03, 1.679510e+10
4.121808e+03, 1.880122e+10
4.125930e+03, 2.004487e+10
4.130056e+03, 1.375392e+10
4.134186e+03, 1.080961e+10
4.138320e+03, 1.695410e+10
4.142459e+03, 1.197196e+10
4.146601e+03, 1.191883e+10
4.150748e+03, 1.211392e+10
4.154898e+03, 1.275513e+10
4.159053e+03, 1.202606e+10
4.163212e+03, 1.090892e+10
4.167376e+03, 8.904249e+09
4.171543e+03, 6.928339e+09
4.175714e+03, 5.910902e+09
4.179890e+03, 6.568182e+09
4.184070e+03, 6.056126e+09
4.188254e+03, 4.921625e+09
4.192442e+03, 4.399525e+09
4.196635e+03, 4.125734e+09
4.200831e+03, 3.502095e+09
4.205032e+03, 2.851408e+09
4.209237e+03, 2.448709e+09
4.213447e+03, 2.086261e+09
4.217660e+03, 1.448436e+09
4.221878e+03, 1.298831e+09
4.226100e+03, 6.216787e+08
4.230326e+03, 7.629954e+08
4.234556e+03, 1.353934e+09
4.238791e+03, 1.865711e+09
4.243029e+03, 2.372885e+09
4.247272e+03, 2.633816e+09
4.251520e+03, 1.681818e+09
4.255771e+03, 3.282491e+08
4.260027e+03, 2.041839e+09
4.264287e+03, 3.927270e+09
4.268551e+03, 4.046361e+09
4.272820e+03, 1.790253e+09
4.277093e+03, 6.441410e+08
4.281370e+03, 3.609828e+09
4.285651e+03, 3.786242e+09
4.289937e+03, 8.288244e+08
4.294227e+03, 2.888328e+09
4.298521e+03, 7.884290e+09
4.302819e+03, 9.600234e+09
4.307122e+03, 1.111130e+10
4.311429e+03, 1.556099e+10
4.315741e+03, 1.734480e+10
4.320057e+03, 1.727592e+10
4.324377e+03, 2.012283e+10
4.328701e+03, 1.916575e+10
4.333030e+03, 2.408912e+10
4.337363e+03, 2.581477e+10
4.341700e+03, 2.160523e+10
4.346042e+03, 2.497167e+10
4.350388e+03, 3.126646e+10
4.354738e+03, 2.081843e+10
4.359093e+03, 2.773009e+10
4.363452e+03, 3.416155e+10
4.367815e+03, 3.804662e+10
4.372183e+03, 3.274495e+10
4.376555e+03, 1.120105e+10
4.380932e+03, 2.285462e+10
4.385313e+03, 1.553755e+10
4.389698e+03, 3.160810e+10
4.394088e+03, 4.575381e+10
4.398482e+03, 3.600610e+10
4.402881e+03, 3.460124e+10
4.407283e+03, 1.839371e+10
4.411691e+03, 4.125945e+10
4.416102e+03, 4.191425e+10
4.420518e+03, 5.395672e+10
4.424939e+03, 2.381665e+10
4.429364e+03, 1.264478e+10
4.433793e+03, 3.196577e+10
4.438227e+03, 2.510115e+10
4.442665e+03, 3.527952e+10
4.447108e+03, 3.993509e+10
4.451555e+03, 5.232714e+10
4.456007e+03, 2.720326e+10
4.460463e+03, 2.721626e+10
4.464923e+03, 1.986648e+10
4.469388e+03, 2.826096e+10
4.473857e+03, 3.432970e+10
4.478331e+03, 3.805953e+10
4.482810e+03, 2.717503e+10
4.487292e+03, 4.148513e+10
4.491780e+03, 4.068898e+10
4.496272e+03, 4.783746e+10
4.500768e+03, 6.116470e+10
4.505269e+03, 4.708185e+10
4.509774e+03, 3.225344e+10
4.514284e+03, 3.776207e+10
4.518798e+03, 4.154733e+10
4.523317e+03, 4.703870e+10
4.527840e+03, 5.152605e+10
4.532368e+03, 4.758391e+10
4.536900e+03, 5.031090e+10
4.541437e+03, 7.206054e+10
4.545979e+03, 6.459527e+10
4.550525e+03, 4.232731e+10
4.555075e+03, 4.540846e+10
4.559630e+03, 5.393967e+10
4.564190e+03, 6.294236e+10
4.568754e+03, 6.418794e+10
4.573323e+03, 4.909039e+10
4.577896e+03, 7.376036e+10
4.582474e+03, 5.455196e+10
4.587056e+03, 2.698883e+10
4.591643e+03, 2.346506e+10
4.596235e+03, 2.397660e+10
4.600831e+03, 2.815332e+10
4.605432e+03, 2.208338e+10
4.610038e+03, 1.284435e+10
4.614648e+03, 4.152267e+10
4.619262e+03, 4.763354e+10
4.623882e+03, 5.480821e+10
4.628505e+03, 2.595518e+10
4.633134e+03, 2.447540e+10
4.637767e+03, 2.488569e+10
4.642405e+03, 2.832704e+10
4.647047e+03, 2.799082e+10
4.651694e+03, 3.031225e+10
4.656346e+03, 4.516834e+10
4.661002e+03, 5.471124e+10
4.665663e+03, 5.176334e+10
4.670329e+03, 3.588839e+10
4.674999e+03, 2.893194e+10
4.679674e+03, 3.573513e+10
4.684354e+03, 3.310526e+10
4.689038e+03, 4.811818e+10
4.693727e+03, 5.334167e+10
4.698421e+03, 5.422900e+10
4.703120e+03, 6.462855e+10
4.707823e+03, 6.765951e+10
4.712530e+03, 6.547624e+10
4.717243e+03, 4.189555e+10
4.721960e+03, 4.761048e+10
4.726682e+03, 5.583440e+10
4.731409e+03, 6.055220e+10
4.736140e+03, 6.511294e+10
4.740876e+03, 6.286712e+10
4.745617e+03, 7.471826e+10
4.750363e+03, 7.990706e+10
4.755113e+03, 9.448440e+10
4.759868e+03, 5.631877e+10
4.764628e+03, 2.190512e+10
4.769393e+03, 2.129075e+10
4.774162e+03, 2.394626e+10
4.778936e+03, 2.732109e+10
4.783715e+03, 2.683853e+10
4.788499e+03, 2.466024e+10
4.793288e+03, 3.045485e+10
4.798081e+03, 3.749091e+10
4.802879e+03, 3.956835e+10
4.807682e+03, 2.553975e+10
4.812490e+03, 2.636926e+10
4.817302e+03, 2.949624e+10
4.822119e+03, 3.131813e+10
4.826941e+03, 3.396698e+10
4.831768e+03, 3.617070e+10
4.836600e+03, 4.348059e+10
4.841437e+03, 4.844048e+10
4.846278e+03, 5.636857e+10
4.851124e+03, 3.857830e+10
4.855976e+03, 4.044381e+10
4.860832e+03, 4.725559e+10
4.865692e+03, 4.913583e+10
4.870558e+03, 6.072714e+10
4.875429e+03, 6.108015e+10
4.880304e+03, 7.096526e+10
4.885184e+03, 7.847305e+10
4.890070e+03, 9.728827e+10
4.894960e+03, 8.638894e+10
4.899855e+03, 8.174282e+10
4.904754e+03, 8.766788e+10
4.909659e+03, 9.187056e+10
4.914569e+03, 1.193002e+11
4.919483e+03, 1.426589e+11
4.924403e+03, 1.401220e+11
4.929327e+03, 1.713664e+11
4.934257e+03, 2.148092e+11
4.939191e+03, 1.979046e+11
4.944130e+03, 1.668595e+11
4.949074e+03, 2.323279e+11
4.954023e+03, 1.435246e+11
4.958977e+03, 2.838328e+10
4.963936e+03, 3.039259e+10
4.968900e+03, 3.401068e+10
4.973869e+03, 3.562675e+10
4.978843e+03, 3.756039e+10
4.983822e+03, 4.213491e+10
4.988806e+03, 4.482919e+10
4.993794e+03, 4.679204e+10
4.998788e+03, 4.982944e+10
5.003787e+03, 3.752487e+10
5.008791e+03, 3.818145e+10
5.013800e+03, 3.830580e+10
5.018813e+03, 4.337779e+10
5.023832e+03, 4.486906e+10
5.028856e+03, 4.594992e+10
5.033885e+03, 5.897444e+10
5.038919e+03, 6.137103e+10
5.043958e+03, 5.577629e+10
5.049002e+03, 6.255225e+10
5.054051e+03, 6.361141e+10
5.059105e+03, 6.126603e+10
5.064164e+03, 6.887545e+10
5.069228e+03, 8.405403e+10
5.074297e+03, 8.635403e+10
5.079372e+03, 7.836027e+10
5.084451e+03, 1.068514e+11
5.089535e+03, 9.805671e+10
5.094625e+03, 9.108803e+10
5.099720e+03, 9.663106e+10
5.104819e+03, 1.115533e+11
5.109924e+03, 7.408054e+10
5.115034e+03, 1.401975e+11
5.120149e+03, 1.264959e+11
5.125269e+03, 1.291220e+11
5.130394e+03, 1.023904e+11
5.135525e+03, 2.289124e+11
5.140660e+03, 1.924721e+11
5.145801e+03, 1.189122e+11
5.150947e+03, 1.169364e+11
5.156098e+03, 1.227651e+11
5.161254e+03, 3.450644e+11
5.166415e+03, 1.639589e+11
5.171582e+03, 2.643275e+10
5.176753e+03, 3.015233e+10
5.181930e+03, 2.392284e+10
5.187112e+03, 4.112877e+10
5.192299e+03, 5.481087e+10
5.197491e+03, 5.399052e+10
5.202689e+03, 5.123695e+10
5.207891e+03, 1.947736e+10
5.213099e+03, 5.911981e+10
5.218312e+03, 9.095559e+10
5.223531e+03, 1.082628e+11
5.228754e+03, 9.584686e+10
5.233983e+03, 1.249576e+11
5.239217e+03, 1.288411e+11
5.244456e+03, 9.756634e+10
5.249701e+03, 9.478676e+10
5.254950e+03, 1.317641e+11
5.260205e+03, 1.510257e+11
5.265465e+03, 1.069600e+11
5.270731e+03, 7.215424e+10
5.276002e+03, 1.518383e+11
5.281278e+03, 1.632380e+11
5.286559e+03, 1.896415e+11
5.291846e+03, 2.006701e+11
5.297137e+03, 1.959030e+11
5.302435e+03, 2.180200e+11
5.307737e+03, 2.744453e+11
5.313045e+03, 1.801005e+11
5.318358e+03, 1.941154e+11
5.323676e+03, 2.019212e+11
5.329000e+03, 1.108238e+11
5.334329e+03, 2.014905e+11
5.339663e+03, 2.310394e+11
5.345003e+03, 2.154497e+11
5.350348e+03, 2.415197e+11
5.355698e+03, 3.102601e+11
5.361054e+03, 1.989740e+11
5.366415e+03, 2.115305e+11
5.371781e+03, 1.580727e+11
5.377153e+03, 2.499094e+11
5.382530e+03, 2.827706e+11
5.387913e+03, 3.267888e+11
5.393301e+03, 2.741388e+11
5.398694e+03, 1.680656e+11
5.404093e+03, 2.507920e+11
5.409497e+03, 1.618737e+11
5.414906e+03, 2.897477e+11
5.420321e+03, 3.206855e+11
5.425741e+03, 2.963264e+11
5.431167e+03, 2.114991e+11
5.436598e+03, 2.517528e+11
5.442035e+03, 3.411459e+11
5.447477e+03, 2.118233e+11
5.452924e+03, 8.378794e+10
5.458377e+03, 8.464728e+10
5.463836e+03, 1.063529e+11
5.469300e+03, 1.157845e+11
5.474769e+03, 1.226053e+11
5.480244e+03, 1.266960e+11
5.485724e+03, 1.370686e+11
5.491210e+03, 1.635757e+11
5.496701e+03, 1.412569e+11
5.502198e+03, 1.080795e+11
5.507700e+03, 1.198483e+11
5.513207e+03, 1.399769e+11
5.518721e+03, 1.487081e+11
5.524239e+03, 1.625434e+11
5.529764e+03, 1.726866e+11
5.535293e+03, 1.678652e+11
5.540829e+03, 1.956588e+11
5.546370e+03, 2.060590e+11
5.551916e+03, 1.899551e+11
5.557468e+03, 2.216879e+11
5.563025e+03, 2.242493e+11
5.568588e+03, 2.013079e+11
5.574157e+03, 2.018514e+11
5.579731e+03, 2.138698e+11
5.585311e+03, 2.149377e+11
5.590896e+03, 2.007935e+11
5.596487e+03, 1.916503e+11
5.602083e+03, 1.429939e+11
5.607686e+03, 1.463610e+11
5.613293e+03, 1.517220e+11
5.618907e+03, 1.387796e+11
5.624525e+03, 1.480756e+11
5.630150e+03, 1.513554e+11
5.635780e+03, 1.606815e+11
5.641416e+03, 1.496860e+11
5.647057e+03, 1.706150e+11
5.652704e+03, 1.899087e+11
5.658357e+03, 1.975809e+11
5.664015e+03, 1.671018e+11
5.669679e+03, 1.690295e+11
5.675349e+03, 1.763893e+11
5.681024e+03, 1.961402e+11
5.686705e+03, 1.942182e+11
5.692392e+03, 2.076408e+11
5.698085e+03, 2.112221e+11
5.703783e+03, 2.098310e+11
5.709486e+03, 2.065695e+11
5.715196e+03, 2.053735e+11
5.720911e+03, 2.159948e+11
5.726632e+03, 2.129554e+11
5.732359e+03, 2.198965e+11
5.738091e+03, 2.263260e+11
5.743829e+03, 2.197972e+11
5.749573e+03, 2.126964e+11
5.755323e+03, 2.106961e+11
5.761078e+03, 1.664799e+11
5.766839e+03, 1.498696e+11
5.772606e+03, 1.485344e+11
5.778378e+03, 1.531465e+11
5.784157e+03, 1.525901e+11
5.789941e+03, 1.464567e+11
5.795731e+03, 1.396267e+11
5.801527e+03, 1.281326e+11
5.807328e+03, 1.172836e+11
5.813135e+03, 9.642666e+10
5.818949e+03, 8.452079e+10
5.824768e+03, 7.335379e+10
5.830592e+03, 6.098281e+10
5.836423e+03, 4.999929e+10
5.842259e+03, 3.693420e+10
5.848102e+03, 2.810102e+10
5.853950e+03, 1.939490e+10
5.859804e+03, 1.290126e+10
5.865663e+03, 8.046180e+09
5.871529e+03, 4.633130e+09
5.877401e+03, 2.472746e+09
5.883278e+03, 1.080579e+09
5.889161e+03, 2.133912e+08
5.895050e+03, 1.087282e+08
5.900945e+03, 4.665277e+08
5.906846e+03, 1.715096e+09
5.912753e+03, 3.655074e+09
5.918666e+03, 6.758277e+09
5.924585e+03, 1.147514e+10
5.930509e+03, 1.787687e+10
5.936440e+03, 2.688650e+10
5.942376e+03, 3.707626e+10
5.948319e+03, 4.844104e+10
5.954267e+03, 6.072060e+10
5.960221e+03, 7.240890e+10
5.966181e+03, 8.675367e+10
5.972148e+03, 9.943652e+10
5.978120e+03, 1.117136e+11
5.984098e+03, 1.288966e+11
5.990082e+03, 1.439468e+11
5.996072e+03, 1.564052e+11
6.002068e+03, 1.694105e+11
6.008070e+03, 1.738868e+11
6.014078e+03, 1.964769e+11
6.020092e+03, 2.093147e+11
6.026112e+03, 2.253498e+11
6.032139e+03, 2.480242e+11
6.038171e+03, 2.604639e+11
6.044209e+03, 2.699145e+11
6.050253e+03, 2.918334e+11
6.056303e+03, 3.073232e+11
6.062360e+03, 3.213040e+11
6.068422e+03, 3.358482e+11
6.074490e+03, 3.711003e+11
6.080565e+03, 4.012944e+11
6.086645e+03, 4.324659e+11
6.092732e+03, 3.960325e+11
6.098825e+03, 3.994145e+11
6.104924e+03, 3.725501e+11
6.111029e+03, 4.194332e+11
6.117140e+03, 4.642041e+11
6.123257e+03, 3.972393e+11
6.129380e+03, 4.883987e+11
6.135509e+03, 5.080533e+11
6.141645e+03, 5.496197e+11
6.147787e+03, 5.417412e+11
6.153934e+03, 3.767440e+11
6.160088e+03, 2.858773e+11
6.166248e+03, 2.125831e+11
6.172415e+03, 2.370942e+11
6.178587e+03, 2.319727e+11
6.184766e+03, 2.436668e+11
6.190950e+03, 2.006337e+11
6.197141e+03, 2.188829e+11
6.203338e+03, 2.327759e+11
6.209542e+03, 2.458678e+11
6.215751e+03, 2.224491e+11
6.221967e+03, 2.215989e+11
6.228189e+03, 2.078327e+11
6.234417e+03, 2.234121e+11
6.240652e+03, 2.266464e+11
6.246892e+03, 2.365636e+11
6.253139e+03, 2.551888e+11
6.259392e+03, 2.640211e+11
6.265652e+03, 2.821733e+11
6.271917e+03, 2.893810e+11
6.278189e+03, 2.875166e+11
6.284467e+03, 2.993223e+11
6.290752e+03, 3.084780e+11
6.297043e+03, 3.042101e+11
6.303340e+03, 3.261189e+11
6.309643e+03, 3.291139e+11
6.315953e+03, 3.778365e+11
6.322269e+03, 3.454820e+11
6.328591e+03, 3.514356e+11
6.334920e+03, 3.748513e+11
6.341254e+03, 4.034269e+11
6.347596e+03, 4.513349e+11
6.353943e+03, 3.853775e+11
6.360297e+03, 3.261347e+11
6.366658e+03, 3.390333e+11
6.373024e+03, 3.489309e+11
6.379397e+03, 3.447307e+11
6.385777e+03, 3.279660e+11
6.392162e+03, 3.268343e+11
6.398555e+03, 3.928284e+11
6.404953e+03, 4.197502e+11
6.411358e+03, 4.882108e+11
6.417769e+03, 4.322572e+11
6.424187e+03, 4.079928e+11
6.430611e+03, 4.337853e+11
6.437042e+03, 4.525950e+11
6.443479e+03, 5.107862e+11
6.449923e+03, 5.061557e+11
6.456372e+03, 5.056114e+11
6.462829e+03, 4.696030e+11
6.469292e+03, 6.124446e+11
6.475761e+03, 6.817944e+11
6.482237e+03, 5.614930e+11
6.488719e+03, 5.056324e+11
6.495208e+03, 5.527098e+11
6.501703e+03, 6.224639e+11
6.508205e+03, 6.876151e+11
6.514713e+03, 6.516126e+11
6.521227e+03, 6.723890e+11
6.527749e+03, 7.322083e+11
6.534276e+03, 7.831112e+11
6.540811e+03, 8.846328e+11
6.547352e+03, 7.405480e+11
6.553899e+03, 6.595366e+11
6.560453e+03, 7.037940e+11
6.567013e+03, 6.539439e+11
6.573580e+03, 5.370672e+11
6.580154e+03, 6.338957e+11
6.586734e+03, 6.979480e+11
6.593321e+03, 7.171067e+11
6.599914e+03, 6.844437e+11
6.606514e+03, 6.955637e+11
6.613120e+03, 6.817075e+11
6.619734e+03, 6.547312e+11
6.626353e+03, 6.250523e+11
6.632980e+03, 6.599485e+11
6.639613e+03, 6.124488e+11
6.646252e+03, 6.516960e+11
6.652899e+03, 4.786260e+11
6.659551e+03, 4.345010e+11
6.666211e+03, 4.835290e+11
6.672877e+03, 4.941925e+11
6.679550e+03, 4.813529e+11
6.686230e+03, 3.749901e+11
6.692916e+03, 4.117148e+11
6.699609e+03, 4.135610e+11
6.706308e+03, 2.515375e+11
6.713015e+03, 2.506428e+11
6.719728e+03, 3.525743e+11
6.726447e+03, 3.729585e+11
6.733174e+03, 3.955506e+11
6.739907e+03, 4.122981e+11
6.746647e+03, 4.231069e+11
6.753394e+03, 4.008878e+11
6.760147e+03, 4.193533e+11
6.766907e+03, 4.449836e+11
6.773674e+03, 4.778533e+11
6.780448e+03, 4.627039e+11
6.787228e+03, 4.051480e+11
6.794015e+03, 4.111783e+11
6.800809e+03, 4.424297e+11
6.807610e+03, 4.547654e+11
6.814418e+03, 4.692585e+11
6.821232e+03, 4.585909e+11
6.828053e+03, 4.735707e+11
6.834882e+03, 4.874513e+11
6.841716e+03, 4.897447e+11
6.848558e+03, 5.052089e+11
6.855407e+03, 4.465640e+11
6.862262e+03, 4.432934e+11
6.869124e+03, 4.671367e+11
6.875994e+03, 4.973026e+11
6.882869e+03, 4.979925e+11
6.889752e+03, 4.787684e+11
6.896642e+03, 5.140202e+11
6.903539e+03, 5.245551e+11
6.910442e+03, 5.977073e+11
6.917353e+03, 5.753767e+11
6.924270e+03, 6.140733e+11
6.931194e+03, 6.698552e+11
6.938126e+03, 6.807976e+11
6.945064e+03, 8.019521e+11
6.952009e+03, 8.723682e+11
6.958961e+03, 8.872392e+11
6.965920e+03, 9.896677e+11
6.972886e+03, 1.048168e+12
6.979859e+03, 1.117811e+12
6.986838e+03, 1.279989e+12
6.993825e+03, 1.046084e+12
7.000819e+03, 1.154023e+12
7.007820e+03, 1.202298e+12
7.014828e+03, 1.341829e+12
7.021843e+03, 1.444811e+12
7.028864e+03, 1.718417e+12
7.035893e+03, 1.606809e+12
7.042929e+03, 1.875953e+12
7.049972e+03, 2.111077e+12
7.057022e+03, 9.210108e+11
7.064079e+03, 5.342204e+11
7.071143e+03, 5.939416e+11
7.078214e+03, 6.273246e+11
7.085292e+03, 6.896740e+11
7.092378e+03, 4.872158e+11
7.099470e+03, 4.958799e+11
7.106570e+03, 5.327951e+11
7.113676e+03, 5.624068e+11
7.120790e+03, 6.142282e+11
7.127911e+03, 5.162024e+11
7.135039e+03, 4.791261e+11
7.142174e+03, 4.942617e+11
7.149316e+03, 5.215368e+11
7.156465e+03, 5.564324e+11
7.163622e+03, 5.383637e+11
7.170785e+03, 5.651423e+11
7.177956e+03, 6.003163e+11
7.185134e+03, 6.438970e+11
7.192319e+03, 6.857382e+11
7.199511e+03, 6.429193e+11
7.206711e+03, 6.308923e+11
7.213918e+03, 6.616747e+11
7.221132e+03, 7.061532e+11
7.228353e+03, 7.526797e+11
7.235581e+03, 7.928101e+11
7.242817e+03, 8.432738e+11
7.250059e+03, 9.621522e+11
7.257309e+03, 1.026704e+12
7.264567e+03, 1.114434e+12
7.271831e+03, 1.070298e+12
7.279103e+03, 1.149465e+12
7.286382e+03, 1.230597e+12
7.293669e+03, 1.364778e+12
7.300962e+03, 1.565156e+12
7.308263e+03, 1.644921e+12
7.315572e+03, 1.839255e+12
7.322887e+03, 2.055468e+12
7.330210e+03, 2.133604e+12
7.337540e+03, 2.317440e+12
7.344878e+03, 2.125294e+12
7.352223e+03, 2.277707e+12
7.359575e+03, 2.549929e+12
7.366934e+03, 2.840226e+12
7.374301e+03, 3.047975e+12
7.381676e+03, 2.826599e+12
7.389057e+03, 2.990505e+12
7.396446e+03, 3.188958e+12
7.403843e+03, 2.895253e+12
7.411247e+03, 3.211492e+12
7.418658e+03, 2.665934e+12
7.426077e+03, 2.873699e+12
7.433503e+03, 3.281000e+12
7.440936e+03, 3.101578e+12
7.448377e+03, 2.677589e+12
7.455825e+03, 2.713195e+12
7.463281e+03, 2.746793e+12
7.470745e+03, 2.974550e+12
7.478215e+03, 2.876947e+12
7.485694e+03, 2.773858e+12
7.493179e+03, 2.945005e+12
7.500672e+03, 3.101334e+12
7.508173e+03, 2.941182e+12
7.515681e+03, 2.717603e+12
7.523197e+03, 2.940480e+12
7.530720e+03, 2.829525e+12
7.538251e+03, 2.899732e+12
7.545789e+03, 3.061681e+12
7.553335e+03, 2.961602e+12
7.560888e+03, 3.054716e+12
7.568449e+03, 2.849326e+12
7.576018e+03, 2.356839e+12
7.583594e+03, 2.517714e+12
7.591177e+03, 1.500279e+12
7.598768e+03, 1.229530e+12
7.606367e+03, 1.160888e+12
7.613973e+03, 1.086214e+12
7.621587e+03, 9.757632e+11
7.629209e+03, 6.977849e+11
7.636838e+03, 4.945754e+11
7.644475e+03, 3.112069e+11
7.652120e+03, 1.460570e+11
7.659772e+03, 4.467850e+10
7.667431e+03, 9.131694e+09
7.675099e+03, 5.115106e+10
7.682774e+03, 1.207675e+11
7.690457e+03, 1.070883e+11
7.698147e+03, 2.414529e+10
7.705845e+03, 4.324294e+10
7.713551e+03, 1.927358e+11
7.721265e+03, 4.210013e+11
7.728986e+03, 6.547633e+11
7.736715e+03, 8.802126e+11
7.744452e+03, 1.012363e+12
7.752196e+03, 1.006860e+12
7.759948e+03, 1.119736e+12
7.767708e+03, 1.215204e+12
7.775476e+03, 1.350752e+12
7.783252e+03, 1.352896e+12
7.791035e+03, 1.380894e+12
7.798826e+03, 1.000865e+12
7.806625e+03, 1.259333e+12
7.814431e+03, 1.823882e+12
7.822246e+03, 1.813764e+12
7.830068e+03, 1.680429e+12
7.837898e+03, 1.750597e+12
7.845736e+03, 1.817710e+12
7.853582e+03, 1.978474e+12
7.861435e+03, 2.091262e+12
7.869297e+03, 2.069097e+12
7.877166e+03, 2.265785e+12
7.885043e+03, 2.542856e+12
7.892928e+03, 2.715832e+12
7.900821e+03, 2.750701e+12
7.908722e+03, 2.550625e+12
7.916631e+03, 2.463548e+12
7.924547e+03, 2.577341e+12
7.932472e+03, 2.750923e+12
7.940404e+03, 2.820334e+12
7.948345e+03, 1.620600e+12
7.956293e+03, 3.066387e+12
7.964249e+03, 3.538768e+12
7.972214e+03, 3.649616e+12
7.980186e+03, 3.662984e+12
7.988166e+03, 3.511260e+12
7.996154e+03, 3.763043e+12
8.004150e+03, 4.003364e+12
8.012154e+03, 4.066450e+12
8.020167e+03, 4.471401e+12
8.028187e+03, 4.678265e+12
8.036215e+03, 4.744534e+12
8.044251e+03, 4.907946e+12
8.052295e+03, 4.689925e+12
8.060348e+03, 5.266398e+12
8.068408e+03, 5.303071e+12
8.076476e+03, 5.400828e+12
8.084553e+03, 6.105005e+12
8.092637e+03, 6.414615e+12
8.100730e+03, 6.982868e+12
8.108831e+03, 7.116905e+12
8.116940e+03, 6.305579e+12
8.125057e+03, 6.821728e+12
8.133182e+03, 8.363271e+12
8.141315e+03, 8.311890e+12
8.149456e+03, 9.064441e+12
8.157606e+03, 8.822942e+12
8.165763e+03, 8.290361e+12
8.173929e+03, 8.282292e+12
8.182103e+03, 4.930264e+12
8.190285e+03, 4.993737e+12
8.198475e+03, 2.988973e+12
8.206674e+03, 4.557435e+12
8.214880e+03, 5.123969e+12
8.223095e+03, 5.577599e+12
8.231318e+03, 6.412430e+12
8.239550e+03, 6.845711e+12
8.247789e+03, 6.958817e+12
8.256037e+03, 6.124862e+12
8.264293e+03, 6.758855e+12
8.272557e+03, 5.477315e+12
8.280830e+03, 5.275698e+12
8.289111e+03, 5.101490e+12
8.297400e+03, 5.271277e+12
8.305697e+03, 4.835415e+12
8.314003e+03, 5.268597e+12
8.322317e+03, 5.661292e+12
8.330639e+03, 5.639210e+12
8.338970e+03, 5.321149e+12
8.347309e+03, 5.153240e+12
8.355656e+03, 5.040311e+12
8.364012e+03, 5.479455e+12
8.372376e+03, 5.544399e+12
8.380748e+03, 5.290911e+12
8.389129e+03, 4.655160e+12
8.397518e+03, 5.331274e+12
8.405916e+03, 5.811759e+12
8.414322e+03, 5.699854e+12
8.422736e+03, 5.308308e+12
8.431159e+03, 5.081457e+12
8.439590e+03, 3.026050e+12
8.448029e+03, 2.349624e+12
8.456477e+03, 2.055163e+12
8.464934e+03, 2.104341e+12
8.473399e+03, 2.073756e+12
8.481872e+03, 2.291917e+12
8.490354e+03, 2.479405e+12
8.498845e+03, 2.566131e+12
8.507343e+03, 2.559075e+12
8.515851e+03, 2.536239e+12
8.524367e+03, 2.467910e+12
8.532891e+03, 2.554757e+12
8.541424e+03, 2.826462e+12
8.549965e+03, 3.106631e+12
8.558515e+03, 3.269660e+12
8.567074e+03, 3.461015e+12
8.575641e+03, 3.549559e+12
8.584216e+03, 3.580330e+12
8.592801e+03, 3.633757e+12
8.601393e+03, 3.692029e+12
8.609995e+03, 3.932711e+12
8.618605e+03, 4.125468e+12
8.627223e+03, 4.432806e+12
8.635851e+03, 4.285062e+12
8.644486e+03, 4.629519e+12
8.653131e+03, 4.657196e+12
8.661784e+03, 4.757891e+12
8.670446e+03, 5.052671e+12
8.679116e+03, 4.881880e+12
8.687795e+03, 4.878684e+12
8.696483e+03, 2.986517e+12
8.705180e+03, 3.081563e+12
8.713885e+03, 2.779068e+12
8.722599e+03, 3.174145e+12
8.731321e+03, 3.860193e+12
8.740053e+03, 3.584014e+12
8.748793e+03, 4.050704e+12
8.757542e+03, 4.867821e+12
8.766299e+03, 5.134042e+12
8.775065e+03, 6.473082e+12
8.783840e+03, 5.944565e+12
8.792624e+03, 6.513174e+12
8.801417e+03, 4.816823e+12
8.810218e+03, 5.187680e+12
8.819029e+03, 7.893659e+12
8.827848e+03, 5.556977e+12
8.836675e+03, 8.491577e+12
8.845512e+03, 7.028639e+12
8.854358e+03, 6.930709e+12
8.863212e+03, 3.601321e+12
8.872075e+03, 3.106187e+12
8.880947e+03, 3.513098e+12
8.889828e+03, 3.432926e+12
8.898718e+03, 3.683477e+12
8.907617e+03, 4.577858e+12
8.916524e+03, 4.122988e+12
8.925441e+03, 4.933536e+12
8.934366e+03, 4.722344e+12
8.943301e+03, 3.922563e+12
8.952244e+03, 4.381218e+12
8.961196e+03, 4.510720e+12
8.970157e+03, 4.653786e+12
8.979128e+03, 5.062135e+12
8.988107e+03, 6.001825e+12
8.997095e+03, 5.927671e+12
9.006092e+03, 6.091485e+12
9.015098e+03, 6.405315e+12
9.024113e+03, 6.216540e+12
9.033137e+03, 5.965005e+12
9.042170e+03, 7.146810e+12
9.051213e+03, 7.614433e+12
9.060264e+03, 7.266136e+12
9.069324e+03, 8.231007e+12
9.078393e+03, 8.262856e+12
9.087472e+03, 8.160435e+12
9.096559e+03, 9.365433e+12
9.105656e+03, 9.922810e+12
9.114761e+03, 1.074632e+13
9.123876e+03, 1.104453e+13
9.133000e+03, 1.051477e+13
9.142133e+03, 9.231442e+12
9.151275e+03, 1.142890e+13
9.160426e+03, 1.254012e+13
9.169587e+03, 1.306101e+13
9.178757e+03, 1.158433e+13
9.187935e+03, 1.338081e+13
9.197123e+03, 1.290939e+13
9.206320e+03, 1.153588e+13
9.215527e+03, 9.330174e+12
9.224742e+03, 7.477295e+12
9.233967e+03, 6.238862e+12
9.243201e+03, 7.453066e+12
9.252444e+03, 6.805372e+12
9.261697e+03, 7.418913e+12
9.270958e+03, 8.024915e+12
9.280229e+03, 6.811450e+12
9.289509e+03, 6.733166e+12
9.298799e+03, 5.838588e+12
9.308098e+03, 5.956536e+12
9.317406e+03, 6.244780e+12
9.326723e+03, 6.088989e+12
9.336050e+03, 6.858646e+12
9.345386e+03, 7.439053e+12
9.354731e+03, 6.809098e+12
9.364086e+03, 6.861095e+12
9.373450e+03, 7.090545e+12
9.382824e+03, 7.095053e+12
9.392206e+03, 6.974964e+12
9.401599e+03, 7.190919e+12
9.411000e+03, 8.223022e+12
9.420411e+03, 8.483035e+12
9.429832e+03, 8.676357e+12
9.439262e+03, 8.594002e+12
9.448701e+03, 8.372125e+12
9.458149e+03, 8.995778e+12
9.467608e+03, 8.679446e+12
9.477075e+03, 1.001048e+13
9.486552e+03, 1.010664e+13
9.496039e+03, 9.651148e+12
9.505535e+03, 1.048085e+13
9.515040e+03, 1.006961e+13
9.524555e+03, 1.101298e+13
9.534080e+03, 1.118760e+13
9.543614e+03, 1.098507e+13
9.553158e+03, 1.123201e+13
9.562711e+03, 1.193732e+13
9.572274e+03, 1.272383e+13
9.581846e+03, 1.314378e+13
9.591428e+03, 1.209460e+13
9.601019e+03, 9.907990e+12
9.610620e+03, 1.194163e+13
9.620231e+03, 1.266568e+13
9.629851e+03, 1.323619e+13
9.639481e+03, 1.043746e+13
9.649120e+03, 1.163474e+13
9.658769e+03, 1.386222e+13
9.668428e+03, 1.385970e+13
9.678097e+03, 1.192756e+13
9.687775e+03, 1.263916e+13
9.697463e+03, 1.462557e+13
9.707160e+03, 1.195692e+13
9.716867e+03, 1.392373e+13
9.726584e+03, 1.105276e+13
9.736311e+03, 1.162023e+13
9.746047e+03, 9.960424e+12
9.755793e+03, 1.106637e+13
9.765549e+03, 1.194913e+13
9.775314e+03, 1.073089e+13
9.785090e+03, 1.038252e+13
9.794875e+03, 1.161804e+13
9.804670e+03, 1.272014e+13
9.814474e+03, 1.100245e+13
9.824289e+03, 1.104385e+13
9.834113e+03, 1.042900e+13
9.843947e+03, 1.065866e+13
9.853791e+03, 1.171873e+13
9.863645e+03, 1.171036e+13
9.873509e+03, 1.186600e+13
9.883382e+03, 1.323252e+13
9.893265e+03, 9.887282e+12
9.903159e+03, 2.283171e+12
9.913062e+03, 1.616199e+12
9.922975e+03, 1.714415e+12
9.932898e+03, 2.112629e+12
9.942831e+03, 2.801670e+12
9.952774e+03, 3.597372e+12
9.962726e+03, 3.371038e+12
9.972689e+03, 2.883990e+12
9.982662e+03, 2.606738e+12
9.992644e+03, 2.900456e+12
1.000264e+04, 3.257075e+12
1.001264e+04, 3.267302e+12
1.002265e+04, 3.663544e+12
1.003268e+04, 4.953507e+12
1.004271e+04, 4.018356e+12
1.005275e+04, 3.168090e+12
1.006280e+04, 2.424441e+12
1.007287e+04, 3.946897e+12
1.008294e+04, 5.243294e+12
1.009302e+04, 3.826745e+12
1.010311e+04, 6.614588e+12
1.011322e+04, 3.743937e+12
1.012333e+04, 4.355085e+12
1.013345e+04, 3.858467e+12
1.014359e+04, 4.122540e+12
1.015373e+04, 4.612245e+12
1.016389e+04, 3.244040e+12
1.017405e+04, 5.023944e+12
1.018422e+04, 3.449583e+12
1.019441e+04, 4.279171e+12
1.020460e+04, 4.122289e+12
1.021481e+04, 4.986051e+12
1.022502e+04, 4.068140e+12
1.023525e+04, 4.166836e+12
1.024548e+04, 6.391516e+12
1.025573e+04, 3.851411e+12
1.026598e+04, 3.143069e+12
1.027625e+04, 3.907176e+12
1.028652e+04, 3.994002e+12
1.029681e+04, 4.200584e+12
1.030711e+04, 4.632641e+12
1.031742e+04, 4.549109e+12
1.032773e+04, 5.184202e+12
1.033806e+04, 4.493482e+12
1.034840e+04, 5.591580e+12
1.035875e+04, 5.161896e+12
1.036911e+04, 6.819869e+12
1.037947e+04, 6.203705e+12
1.038985e+04, 4.759285e+12
1.040024e+04, 6.461773e+12
1.041064e+04, 8.081527e+12
1.042106e+04, 5.250714e+12
1.043148e+04, 4.335985e+12
1.044191e+04, 7.240963e+12
1.045235e+04, 1.048224e+13
1.046280e+04, 1.065510e+13
1.047326e+04, 4.079528e+12
1.048374e+04, 7.267841e+12
1.049422e+04, 8.804576e+12
1.050472e+04, 8.291530e+12
1.051522e+04, 5.310359e+12
1.052574e+04, 5.746229e+12
1.053626e+04, 1.159444e+13
1.054680e+04, 8.910115e+12
1.055734e+04, 7.138008e+12
1.056790e+04, 6.135625e+12
1.057847e+04, 9.439806e+12
1.058905e+04, 9.542497e+12
1.059964e+04, 1.059399e+13
1.061024e+04, 8.638792e+12
1.062085e+04, 6.853447e+12
1.063147e+04, 1.026685e+13
1.064210e+04, 1.337673e+13
1.065274e+04, 1.108087e+13
1.066339e+04, 9.295555e+12
1.067406e+04, 8.144069e+12
1.068473e+04, 1.279573e+13
1.069542e+04, 1.228491e+13
1.070611e+04, 1.255385e+13
1.071682e+04, 1.461502e+13
1.072753e+04, 1.148218e+13
1.073826e+04, 1.410420e+13
1.074900e+04, 1.498686e+13
1.075975e+04, 1.562283e+13
1.077051e+04, 1.589960e+13
1.078128e+04, 1.674638e+13
1.079206e+04, 1.556708e+13
1.080285e+04, 1.594537e+13
1.081366e+04, 1.432665e+13
1.082447e+04, 1.699759e+13
1.083529e+04, 1.776600e+13
1.084613e+04, 1.628708e+13
1.085698e+04, 1.640205e+13
1.086783e+04, 1.652514e+13
1.087870e+04, 1.767973e+13
1.088958e+04, 1.575530e+13
1.090047e+04, 1.683793e+13
1.091137e+04, 1.668193e+13
1.092228e+04, 1.668053e+13
1.093320e+04, 1.676989e+13
1.094414e+04, 1.727961e+13
1.095508e+04, 1.658868e+13
1.096604e+04, 1.644824e+13
1.097700e+04, 1.475692e+13
1.098798e+04, 1.555129e+13
1.099897e+04, 1.560767e+13
1.100997e+04, 1.602713e+13
1.102098e+04, 1.411315e+13
1.103200e+04, 1.371548e+13
1.104303e+04, 1.376162e+13
1.105407e+04, 1.268407e+13
1.106513e+04, 1.343550e+13
1.107619e+04, 1.384879e+13
1.108727e+04, 1.351238e+13
1.109835e+04, 1.345909e+13
1.110945e+04, 1.271979e+13
1.112056e+04, 1.343807e+13
1.113168e+04, 1.398674e+13
1.114281e+04, 1.526740e+13
1.115396e+04, 1.358882e+13
1.116511e+04, 1.488209e+13
1.117628e+04, 1.374702e+13
1.118745e+04, 1.495784e+13
1.119864e+04, 1.369115e+13
1.120984e+04, 1.452934e+13
1.122105e+04, 1.431942e+13
1.123227e+04, 1.538235e+13
1.124350e+04, 1.506541e+13
1.125474e+04, 1.549820e+13
1.126600e+04, 1.609822e+13
1.127727e+04, 1.498957e+13
1.128854e+04, 1.570697e+13
1.129983e+04, 1.516380e+13
1.131113e+04, 1.600865e+13
1.132244e+04, 1.573468e+13
1.133376e+04, 1.473184e+13
1.134510e+04, 1.330247e+13
1.135644e+04, 1.401622e+13
1.136780e+04, 1.397755e+13
1.137917e+04, 1.031763e+13
1.139055e+04, 1.091800e+13
1.140194e+04, 9.448537e+12
1.141334e+04, 1.084202e+13
1.142475e+04, 1.373154e+13
1.143618e+04, 1.432235e+13
1.144761e+04, 1.485214e+13
1.145906e+04, 1.537441e+13
1.147052e+04, 1.599300e+13
1.148199e+04, 1.555134e+13
1.149347e+04, 1.637282e+13
1.150497e+04, 1.664636e+13
1.151647e+04, 1.655924e+13
1.152799e+04, 1.586206e+13
1.153952e+04, 1.556944e+13
1.155106e+04, 1.623586e+13
1.156261e+04, 1.570244e+13
1.157417e+04, 1.591317e+13
1.158574e+04, 1.653465e+13
1.159733e+04, 1.571615e+13
1.160893e+04, 1.350419e+13
1.162054e+04, 1.582860e+13
1.163216e+04, 1.654238e+13
1.164379e+04, 1.515221e+13
1.165543e+04, 1.506213e+13
1.166709e+04, 1.567601e+13
1.167875e+04, 1.402859e+13
1.169043e+04, 7.095540e+12
1.170212e+04, 1.142174e+13
1.171383e+04, 1.451783e+13
1.172554e+04, 1.636622e+13
1.173726e+04, 1.421272e+13
1.174900e+04, 1.452826e+13
1.176075e+04, 1.228485e+13
1.177251e+04, 5.546575e+12
1.178428e+04, 9.672562e+12
1.179607e+04, 1.390753e+13
1.180786e+04, 1.472301e+13
1.181967e+04, 1.537253e+13
1.183149e+04, 1.513052e+13
1.184332e+04, 1.626023e+13
1.185517e+04, 1.570028e+13
1.186702e+04, 1.612934e+13
1.187889e+04, 1.633937e+13
1.189077e+04, 1.340945e+13
1.190266e+04, 1.691107e+13
1.191456e+04, 1.618706e+13
1.192648e+04, 1.710167e+13
1.193840e+04, 1.481774e+13
1.195034e+04, 1.284521e+13
1.196229e+04, 1.256994e+13
1.197425e+04, 1.055126e+13
1.198623e+04, 1.173435e+13
1.199821e+04, 1.020425e+13
1.201021e+04, 1.061239e+13
1.202222e+04, 1.143253e+13
1.203424e+04, 1.203345e+13
1.204628e+04, 1.332829e+13
1.205833e+04, 1.595035e+13
1.207038e+04, 1.352227e+13
1.208245e+04, 1.551862e+13
1.209454e+04, 1.310915e+13
1.210663e+04, 1.218561e+13
1.211874e+04, 1.252690e+13
1.213086e+04, 1.359865e+13
1.214299e+04, 1.607104e+13
1.215513e+04, 1.573497e+13
1.216729e+04, 1.562245e+13
1.217945e+04, 1.635208e+13
1.219163e+04, 1.526644e+13
1.220382e+04, 1.356437e+13
1.221603e+04, 1.343272e+13
1.222824e+04, 1.347436e+13
1.224047e+04, 1.472646e+13
1.225271e+04, 1.701588e+13
1.226497e+04, 1.580483e+13
1.227723e+04, 1.623012e+13
1.228951e+04, 1.624940e+13
1.230180e+04, 1.603364e+13
1.231410e+04, 1.498181e+13
1.232641e+04, 1.458134e+13
1.233874e+04, 1.511094e+13
1.235108e+04, 1.430333e+13
1.236343e+04, 1.473676e+13
1.237579e+04, 1.448078e+13
1.238817e+04, 1.447821e+13
1.240056e+04, 1.322505e+13
1.241296e+04, 1.122192e+13
1.242537e+04, 1.022506e+13
1.243780e+04, 7.465705e+12
1.245023e+04, 1.376319e+13
1.246268e+04, 1.430861e+13
1.247515e+04, 1.417942e+13
1.248762e+04, 1.385235e+13
1.250011e+04, 1.328264e+13
1.251261e+04, 1.190574e+13
1.252512e+04, 6.624945e+12
1.253765e+04, 1.260901e+13
1.255018e+04, 1.300186e+13
1.256273e+04, 1.492026e+13
1.257530e+04, 1.523417e+13
1.258787e+04, 1.473819e+13
1.260046e+04, 1.463387e+13
1.261306e+04, 1.666632e+13
1.262567e+04, 1.405390e+13
1.263830e+04, 1.353732e+13
1.265094e+04, 1.456909e+13
1.266359e+04, 1.614974e+13
1.267625e+04, 1.526286e+13
1.268893e+04, 1.601485e+13
1.270162e+04, 1.510810e+13
1.271432e+04, 1.578038e+13
1.272703e+04, 1.696029e+13
1.273976e+04, 1.478598e+13
1.275250e+04, 1.474960e+13
1.276525e+04, 1.591579e+13
1.277802e+04, 1.553932e+13
1.279080e+04, 1.620378e+13
1.280359e+04, 1.590861e+13
1.281639e+04, 1.592028e+13
1.282921e+04, 1.540667e+13
1.284204e+04, 1.596739e+13
1.285488e+04, 1.520151e+13
1.286773e+04, 1.543207e+13
1.288060e+04, 1.541548e+13
1.289348e+04, 1.565186e+13
1.290637e+04, 1.496209e+13
1.291928e+04, 1.558134e+13
1.293220e+04, 1.599267e+13
1.294513e+04, 1.571446e+13
1.295808e+04, 1.718740e+13
1.297104e+04, 1.694434e+13
1.298401e+04, 1.681943e+13
1.299699e+04, 1.616392e+13
1.300999e+04, 1.618685e+13
1.302300e+04, 1.711733e+13
1.303602e+04, 1.703116e+13
1.304906e+04, 1.720649e+13
1.306211e+04, 1.722162e+13
1.307517e+04, 1.633549e+13
1.308824e+04, 1.626015e+13
1.310133e+04, 1.685859e+13
1.311443e+04, 1.706097e+13
1.312755e+04, 1.485712e+13
1.314067e+04, 1.652883e+13
1.315382e+04, 1.530956e+13
1.316697e+04, 1.705314e+13
1.318014e+04, 1.658287e+13
1.319332e+04, 1.721138e+13
1.320651e+04, 1.600192e+13
1.321972e+04, 1.520946e+13
1.323294e+04, 1.587086e+13
1.324617e+04, 1.554306e+13
1.325941e+04, 1.513504e+13
1.327267e+04, 1.464457e+13
1.328595e+04, 1.492259e+13
1.329923e+04, 1.369928e+13
1.331253e+04, 1.260372e+13
1.332584e+04, 9.947279e+12
1.333917e+04, 1.119503e+13
1.335251e+04, 6.230767e+12
1.336586e+04, 7.672897e+12
1.337923e+04, 6.388379e+12
1.339261e+04, 8.636041e+12
1.340600e+04, 7.895007e+12
1.341941e+04, 7.228643e+12
1.343283e+04, 6.672170e+12
1.344626e+04, 6.934145e+12
1.345970e+04, 7.835224e+12
1.347316e+04, 6.566845e+12
1.348664e+04, 7.147809e+12
1.350012e+04, 6.882091e+12
1.351362e+04, 6.749440e+12
1.352714e+04, 7.159358e+12
1.354066e+04, 5.810120e+12
1.355421e+04, 6.145019e+12
1.356776e+04, 7.266233e+12
1.358133e+04, 6.418588e+12
1.359491e+04, 6.981858e+12
1.360850e+04, 7.165577e+12
1.362211e+04, 5.775809e+12
1.363573e+04, 8.034309e+12
1.364937e+04, 6.569507e+12
1.366302e+04, 7.598906e+12
1.367668e+04, 7.916080e+12
1.369036e+04, 7.010040e+12
1.370405e+04, 7.296312e+12
1.371775e+04, 7.300124e+12
1.373147e+04, 7.467805e+12
1.374520e+04, 7.285141e+12
1.375895e+04, 8.114558e+12
1.377271e+04, 8.167117e+12
1.378648e+04, 7.738368e+12
1.380027e+04, 8.558257e+12
1.381407e+04, 8.746855e+12
1.382788e+04, 6.472748e+12
1.384171e+04, 8.531921e+12
1.385555e+04, 7.608222e+12
1.386941e+04, 8.373796e+12
1.388327e+04, 6.849591e+12
1.389716e+04, 8.104412e+12
1.391106e+04, 6.538504e+12
1.392497e+04, 6.653737e+12
1.393889e+04, 7.550256e+12
1.395283e+04, 6.481719e+12
1.396678e+04, 6.940339e+12
1.398075e+04, 5.964717e+12
1.399473e+04, 6.418480e+12
1.400873e+04, 6.009378e+12
1.402273e+04, 7.400751e+12
1.403676e+04, 7.237672e+12
1.405079e+04, 6.421051e+12
1.406484e+04, 7.463800e+12
1.407891e+04, 6.099042e+12
1.409299e+04, 6.081685e+12
1.410708e+04, 6.459974e+12
1.412119e+04, 5.232027e+12
1.413531e+04, 6.648656e+12
1.414944e+04, 5.918031e+12
1.416359e+04, 6.510473e+12
1.417776e+04, 5.248087e+12
1.419194e+04, 5.628897e+12
1.420613e+04, 6.479309e+12
1.422033e+04, 5.958971e+12
1.423455e+04, 5.000114e+12
1.424879e+04, 5.972536e+12
1.426304e+04, 5.551368e+12
1.427730e+04, 5.817648e+12
1.429158e+04, 4.978575e+12
1.430587e+04, 7.029962e+12
1.432018e+04, 5.616803e+12
1.433450e+04, 5.576606e+12
1.434883e+04, 6.099456e+12
1.436318e+04, 6.005450e+12
1.437754e+04, 6.432220e+12
1.439192e+04, 5.591983e+12
1.440631e+04, 6.117544e+12
1.442072e+04, 5.847957e+12
1.443514e+04, 7.541945e+12
1.444957e+04, 4.983305e+12
1.446402e+04, 6.372160e+12
1.447849e+04, 6.412434e+12
1.449297e+04, 6.975893e+12
1.450746e+04, 5.093149e+12
1.452197e+04, 8.018827e+12
1.453649e+04, 6.443761e+12
1.455102e+04, 7.118610e+12
1.456558e+04, 5.645139e+12
1.458014e+04, 7.432612e+12
1.459472e+04, 7.861703e+12
1.460932e+04, 6.767509e+12
1.462393e+04, 5.625807e+12
1.463855e+04, 7.042219e+12
1.465319e+04, 7.497231e+12
1.466784e+04, 7.191142e+12
1.468251e+04, 5.692305e+12
1.469719e+04, 6.285559e+12
1.471189e+04, 6.921836e+12
1.472660e+04, 7.506751e+12
1.474133e+04, 6.284309e+12
1.475607e+04, 6.739830e+12
1.477082e+04, 6.730130e+12
1.478560e+04, 7.726237e+12
1.480038e+04, 6.349419e+12
1.481518e+04, 6.635589e+12
1.483000e+04, 7.338050e+12
1.484483e+04, 7.000537e+12
1.485967e+04, 7.369442e+12
1.487453e+04, 7.589042e+12
1.488941e+04, 6.674652e+12
1.490429e+04, 7.066515e+12
1.491920e+04, 7.463487e+12
1.493412e+04, 7.293565e+12
1.494905e+04, 7.068001e+12
1.496400e+04, 7.292115e+12
1.497897e+04, 7.657477e+12
1.499394e+04, 7.631650e+12
1.500894e+04, 7.426562e+12
1.502395e+04, 7.076587e+12
1.503897e+04, 7.978771e+12
1.505401e+04, 7.870212e+12
1.506906e+04, 7.899055e+12
1.508413e+04, 7.334847e+12
1.509922e+04, 8.057197e+12
1.511432e+04, 7.895872e+12
1.512943e+04, 7.782240e+12
1.514456e+04, 8.584009e+12
1.515970e+04, 7.914921e+12
1.517486e+04, 6.758460e+12
1.519004e+04, 8.470577e+12
1.520523e+04, 8.235811e+12
1.522043e+04, 8.576447e+12
1.523566e+04, 8.978516e+12
1.525089e+04, 8.117233e+12
1.526614e+04, 8.120036e+12
1.528141e+04, 8.357003e+12
1.529669e+04, 8.918339e+12
1.531199e+04, 8.919177e+12
1.532730e+04, 7.701955e+12
1.534263e+04, 9.180414e+12
1.535797e+04, 8.951090e+12
1.537333e+04, 8.765470e+12
1.538870e+04, 9.318803e+12
1.540409e+04, 8.365309e+12
1.541949e+04, 8.998278e+12
1.543491e+04, 8.858297e+12
1.545035e+04, 9.535979e+12
1.546580e+04, 9.427353e+12
1.548126e+04, 9.063073e+12
1.549674e+04, 9.379908e+12
1.551224e+04, 8.976160e+12
1.552775e+04, 9.913976e+12
1.554328e+04, 9.350528e+12
1.555882e+04, 9.549819e+12
1.557438e+04, 9.156446e+12
1.558996e+04, 9.498319e+12
1.560555e+04, 9.475845e+12
1.562115e+04, 9.823034e+12
1.563677e+04, 9.985795e+12
1.565241e+04, 9.128552e+12
1.566806e+04, 1.020826e+13
1.568373e+04, 1.024900e+13
1.569941e+04, 9.872308e+12
1.571511e+04, 1.011321e+13
1.573083e+04, 1.001928e+13
1.574656e+04, 1.054592e+13
1.576231e+04, 1.024890e+13
1.577807e+04, 1.033564e+13
1.579385e+04, 1.049715e+13
1.580964e+04, 1.021281e+13
1.582545e+04, 1.072947e+13
1.584128e+04, 1.020211e+13
1.585712e+04, 1.078670e+13
1.587297e+04, 1.072907e+13
1.588885e+04, 1.088753e+13
1.590474e+04, 1.056888e+13
1.592064e+04, 1.087278e+13
1.593656e+04, 1.079723e+13
1.595250e+04, 1.104436e+13
1.596845e+04, 1.110566e+13
1.598442e+04, 1.098124e+13
1.600040e+04, 1.088434e+13
1.601640e+04, 1.113591e+13
1.603242e+04, 1.133516e+13
1.604845e+04, 1.091588e+13
1.606450e+04, 1.114840e+13
1.608057e+04, 1.130895e+13
1.609665e+04, 1.132295e+13
1.611274e+04, 1.113448e+13
1.612886e+04, 1.141254e+13
1.614498e+04, 1.136589e+13
1.616113e+04, 1.143136e+13
1.617729e+04, 1.179774e+13
1.619347e+04, 1.110372e+13
1.620966e+04, 1.137343e+13
1.622587e+04, 1.151248e+13
1.624210e+04, 1.177106e+13
1.625834e+04, 1.140443e+13
1.627460e+04, 1.173966e+13
1.629087e+04, 1.175565e+13
1.630716e+04, 1.167814e+13
1.632347e+04, 1.163361e+13
1.633979e+04, 1.189436e+13
1.635613e+04, 1.186164e+13
1.637249e+04, 1.195984e+13
1.638886e+04, 1.184699e+13
1.640525e+04, 1.187627e+13
1.642166e+04, 1.165622e+13
1.643808e+04, 1.201515e+13
1.645452e+04, 1.208477e+13
1.647097e+04, 1.210631e+13
1.648744e+04, 1.201641e+13
1.650393e+04, 1.183564e+13
1.652043e+04, 1.199429e+13
1.653695e+04, 1.205888e+13
1.655349e+04, 1.213109e+13
1.657004e+04, 1.221076e+13
1.658661e+04, 1.208101e+13
1.660320e+04, 1.191807e+13
1.661980e+04, 1.194038e+13
1.663642e+04, 1.225235e+13
1.665306e+04, 1.222125e+13
1.666971e+04, 1.208722e+13
1.668638e+04, 1.205413e+13
1.670307e+04, 1.225035e+13
1.671977e+04, 1.191803e+13
1.673649e+04, 1.216029e+13
1.675323e+04, 1.221608e+13
1.676998e+04, 1.198157e+13
1.678675e+04, 1.230027e+13
1.680354e+04, 1.210905e+13
1.682034e+04, 1.220438e+13
1.683716e+04, 1.215460e+13
1.685400e+04, 1.216939e+13
1.687085e+04, 1.195092e+13
1.688772e+04, 1.159796e+13
1.690461e+04, 1.210307e+13
1.692152e+04, 1.148360e+13
1.693844e+04, 1.183944e+13
1.695538e+04, 1.153713e+13
1.697233e+04, 1.100648e+13
1.698930e+04, 1.135890e+13
1.700629e+04, 1.110016e+13
1.702330e+04, 1.144782e+13
1.704032e+04, 1.093064e+13
1.705736e+04, 1.088828e+13
1.707442e+04, 1.062909e+13
1.709149e+04, 1.048286e+13
1.710859e+04, 1.019361e+13
1.712569e+04, 1.009274e+13
1.714282e+04, 9.553551e+12
1.715996e+04, 9.233108e+12
1.717712e+04, 9.055784e+12
1.719430e+04, 8.472044e+12
1.721149e+04, 9.536734e+12
1.722871e+04, 8.870034e+12
1.724593e+04, 9.500175e+12
1.726318e+04, 8.422874e+12
1.728044e+04, 8.846226e+12
1.729772e+04, 8.653823e+12
1.731502e+04, 8.038907e+12
1.733234e+04, 8.660080e+12
1.734967e+04, 7.822497e+12
1.736702e+04, 7.868010e+12
1.738439e+04, 8.212321e+12
1.740177e+04, 7.262787e+12
1.741917e+04, 7.516944e+12
1.743659e+04, 7.824970e+12
1.745403e+04, 7.387269e+12
1.747148e+04, 6.772129e+12
1.748895e+04, 7.575971e+12
1.750644e+04, 6.516926e+12
1.752395e+04, 7.505487e+12
1.754147e+04, 6.618262e+12
1.755901e+04, 5.819595e+12
1.757657e+04, 6.233929e+12
1.759415e+04, 6.774068e+12
1.761174e+04, 6.592833e+12
1.762936e+04, 5.738717e+12
1.764699e+04, 6.272624e+12
1.766463e+04, 6.622109e+12
1.768230e+04, 4.880211e+12
1.769998e+04, 6.412320e+12
1.771768e+04, 5.262453e+12
1.773540e+04, 5.891410e+12
1.775313e+04, 5.069633e+12
1.777089e+04, 5.181999e+12
1.778866e+04, 5.204545e+12
1.780644e+04, 5.388790e+12
1.782425e+04, 4.815022e+12
1.784208e+04, 5.485601e+12
1.785992e+04, 4.485278e+12
1.787778e+04, 4.349314e+12
1.789566e+04, 5.652147e+12
1.791355e+04, 4.101592e+12
1.793146e+04, 4.684774e+12
1.794940e+04, 4.908925e+12
1.796735e+04, 4.290748e+12
1.798531e+04, 5.590623e+12
1.800330e+04, 3.609348e+12
1.802130e+04, 4.081360e+12
1.803932e+04, 4.916242e+12
1.805736e+04, 4.098943e+12
1.807542e+04, 4.150141e+12
1.809349e+04, 4.865846e+12
1.811159e+04, 3.862007e+12
1.812970e+04, 4.067642e+12
1.814783e+04, 5.007426e+12
1.816598e+04, 4.414627e+12
1.818414e+04, 4.023395e+12
1.820233e+04, 3.925929e+12
1.822053e+04, 3.285721e+12
1.823875e+04, 5.939813e+12
1.825699e+04, 3.959096e+12
1.827525e+04, 4.040268e+12
1.829352e+04, 4.840749e+12
1.831181e+04, 4.182540e+12
1.833013e+04, 3.980833e+12
1.834846e+04, 4.277368e+12
1.836681e+04, 4.220141e+12
1.838517e+04, 3.968754e+12
1.840356e+04, 4.301538e+12
1.842196e+04, 3.785818e+12
1.844038e+04, 3.439567e+12
1.845882e+04, 3.935614e+12
1.847728e+04, 3.056923e+12
1.849576e+04, 3.439926e+12
1.851425e+04, 4.450746e+12
1.853277e+04, 3.290684e+12
1.855130e+04, 3.955613e+12
1.856985e+04, 2.888159e+12
1.858842e+04, 2.874477e+12
1.860701e+04, 2.634590e+12
1.862562e+04, 3.584248e+12
1.864424e+04, 3.016004e+12
1.866289e+04, 3.529915e+12
1.868155e+04, 3.397776e+12
1.870023e+04, 4.056626e+12
1.871893e+04, 3.576810e+12
1.873765e+04, 3.257363e+12
1.875639e+04, 3.806643e+12
1.877515e+04, 3.416842e+12
1.879392e+04, 3.578831e+12
1.881272e+04, 3.405054e+12
1.883153e+04, 4.860386e+12
1.885036e+04, 3.311700e+12
1.886921e+04, 4.324552e+12
1.888808e+04, 4.067616e+12
1.890697e+04, 3.950793e+12
1.892587e+04, 3.317274e+12
1.894480e+04, 3.995724e+12
1.896374e+04, 4.440389e+12
1.898271e+04, 3.745458e+12
1.900169e+04, 4.545684e+12
1.902069e+04, 4.225790e+12
1.903971e+04, 4.276581e+12
1.905875e+04, 3.856249e+12
1.907781e+04, 4.492790e+12
1.909689e+04, 4.343693e+12
1.911599e+04, 3.755501e+12
1.913510e+04, 4.454439e+12
1.915424e+04, 4.473711e+12
1.917339e+04, 4.049008e+12
1.919257e+04, 4.498974e+12
1.921176e+04, 3.878255e+12
1.923097e+04, 4.229222e+12
1.925020e+04, 4.155475e+12
1.926945e+04, 3.987485e+12
1.928872e+04, 4.356560e+12
1.930801e+04, 3.429223e+12
1.932732e+04, 3.944934e+12
1.934664e+04, 4.041350e+12
1.936599e+04, 4.029880e+12
1.938536e+04, 3.645164e+12
1.940474e+04, 3.056833e+12
1.942415e+04, 3.894913e+12
1.944357e+04, 3.604888e+12
1.946301e+04, 3.416127e+12
1.948248e+04, 3.341912e+12
1.950196e+04, 3.668866e+12
1.952146e+04, 3.642600e+12
1.954098e+04, 3.615337e+12
1.956052e+04, 3.163739e+12
1.958009e+04, 4.291616e+12
1.959967e+04, 3.503422e+12
1.961927e+04, 3.692676e+12
1.963888e+04, 3.528435e+12
1.965852e+04, 3.819321e+12
1.967818e+04, 3.668157e+12
1.969786e+04, 3.946599e+12
1.971756e+04, 3.809808e+12
1.973728e+04, 3.118709e+12
1.975701e+04, 2.963021e+12
1.977677e+04, 3.195363e+12
1.979655e+04, 3.082303e+12
1.981634e+04, 3.338608e+12
1.983616e+04, 3.475992e+12
1.985600e+04, 3.364207e+12
1.987585e+04, 3.380143e+12
1.989573e+04, 2.986335e+12
1.991562e+04, 3.085718e+12
1.993554e+04, 3.907543e+12
1.995547e+04, 3.457078e+12
1.997543e+04, 3.275705e+12
1.999541e+04, 3.336735e+12
2.001540e+04, 3.431001e+12
2.003542e+04, 3.836746e+12
2.005545e+04, 3.604000e+12
2.007551e+04, 3.752940e+12
2.009558e+04, 3.079345e+12
2.011568e+04, 3.307823e+12
2.013579e+04, 3.703448e+12
2.015593e+04, 3.592417e+12
2.017609e+04, 3.689955e+12
2.019626e+04, 3.026354e+12
2.021646e+04, 4.216485e+12
2.023667e+04, 3.867526e+12
2.025691e+04, 3.588957e+12
2.027717e+04, 3.629127e+12
2.029744e+04, 3.456344e+12
2.031774e+04, 3.937117e+12
2.033806e+04, 3.792398e+12
2.035840e+04, 3.802501e+12
2.037876e+04, 4.032179e+12
2.039914e+04, 3.739432e+12
2.041953e+04, 4.116879e+12
2.043995e+04, 3.750122e+12
2.046039e+04, 3.830717e+12
2.048085e+04, 4.077978e+12
2.050134e+04, 3.955427e+12
2.052184e+04, 4.101138e+12
2.054236e+04, 3.820406e+12
2.056290e+04, 4.117455e+12
2.058346e+04, 4.498615e+12
2.060405e+04, 4.120895e+12
2.062465e+04, 4.199401e+12
2.064528e+04, 3.848142e+12
2.066592e+04, 4.295860e+12
2.068659e+04, 4.302163e+12
2.070727e+04, 4.506337e+12
2.072798e+04, 4.121121e+12
2.074871e+04, 4.298081e+12
2.076946e+04, 4.389870e+12
2.079023e+04, 4.495080e+12
2.081102e+04, 4.394477e+12
2.083183e+04, 4.365644e+12
2.085266e+04, 4.567437e+12
2.087351e+04, 4.407091e+12
2.089439e+04, 4.366731e+12
2.091528e+04, 4.818132e+12
2.093620e+04, 4.609723e+12
2.095713e+04, 4.590915e+12
2.097809e+04, 4.614218e+12
2.099907e+04, 4.570347e+12
2.102007e+04, 4.801120e+12
2.104109e+04, 4.812047e+12
2.106213e+04, 4.802136e+12
2.108319e+04, 4.590043e+12
2.110427e+04, 5.033112e+12
2.112538e+04, 4.672290e+12
2.114650e+04, 5.044689e+12
2.116765e+04, 4.740720e+12
2.118882e+04, 4.881792e+12
2.121001e+04, 4.951877e+12
2.123122e+04, 4.992762e+12
2.125245e+04, 5.074468e+12
2.127370e+04, 4.945270e+12
2.129497e+04, 4.793273e+12
2.131627e+04, 5.042634e+12
2.133758e+04, 5.111587e+12
2.135892e+04, 5.238406e+12
2.138028e+04, 4.953935e+12
2.140166e+04, 4.968254e+12
2.142306e+04, 4.982725e+12
2.144449e+04, 5.418627e+12
2.146593e+04, 5.337942e+12
2.148740e+04, 5.070270e+12
2.150888e+04, 5.075380e+12
2.153039e+04, 5.089647e+12
2.155192e+04, 5.174351e+12
2.157347e+04, 5.292963e+12
2.159505e+04, 5.170400e+12
2.161664e+04, 5.291333e+12
2.163826e+04, 5.190754e+12
2.165990e+04, 5.235935e+12
2.168156e+04, 5.381873e+12
2.170324e+04, 5.239084e+12
2.172494e+04, 5.207705e+12
2.174667e+04, 5.291966e+12
2.176841e+04, 5.107352e+12
2.179018e+04, 5.154965e+12
2.181197e+04, 5.312213e+12
2.183378e+04, 5.147059e+12
2.185562e+04, 5.165147e+12
2.187747e+04, 5.246741e+12
2.189935e+04, 5.241269e+12
2.192125e+04, 5.228593e+12
2.194317e+04, 5.229364e+12
2.196512e+04, 5.163012e+12
2.198708e+04, 5.292809e+12
2.200907e+04, 5.224015e+12
2.203108e+04, 5.024919e+12
2.205311e+04, 4.946552e+12
2.207516e+04, 4.976059e+12
2.209724e+04, 4.981808e+12
2.211933e+04, 5.220089e+12
2.214145e+04, 5.203385e+12
2.216359e+04, 5.127341e+12
2.218576e+04, 5.095715e+12
2.220794e+04, 4.892551e+12
2.223015e+04, 5.212010e+12
2.225238e+04, 5.353667e+12
2.227463e+04, 5.008089e+12
2.229691e+04, 5.010208e+12
2.231921e+04, 5.259618e+12
2.234152e+04, 4.990623e+12
2.236387e+04, 4.953882e+12
2.238623e+04, 5.037903e+12
2.240862e+04, 5.143437e+12
2.243102e+04, 4.939155e+12
2.245346e+04, 5.146825e+12
2.247591e+04, 4.952157e+12
2.249839e+04, 4.954862e+12
2.252088e+04, 5.053748e+12
2.254340e+04, 4.899713e+12
2.256595e+04, 5.037332e+12
2.258851e+04, 4.975848e+12
2.261110e+04, 4.976652e+12
2.263371e+04, 4.810713e+12
2.265635e+04, 4.764830e+12
2.267900e+04, 4.943213e+12
2.270168e+04, 4.803394e+12
2.272438e+04, 4.804566e+12
2.274711e+04, 4.956757e+12
2.276986e+04, 4.946766e+12
2.279263e+04, 4.621487e+12
2.281542e+04, 4.812733e+12
2.283823e+04, 4.660010e+12
2.286107e+04, 4.950097e+12
2.288393e+04, 4.869268e+12
2.290682e+04, 4.731215e+12
2.292972e+04, 3.989729e+12
2.295265e+04, 3.295466e+12
2.297561e+04, 3.671416e+12
2.299858e+04, 3.996614e+12
2.302158e+04, 3.869046e+12
2.304460e+04, 4.097691e+12
2.306765e+04, 3.819729e+12
2.309071e+04, 4.021408e+12
2.311380e+04, 3.956035e+12
2.313692e+04, 4.054110e+12
2.316006e+04, 3.961325e+12
2.318322e+04, 3.934004e+12
2.320640e+04, 4.124587e+12
2.322961e+04, 2.936754e+12
2.325283e+04, 3.376522e+12
2.327609e+04, 3.480248e+12
2.329936e+04, 3.469541e+12
2.332266e+04, 3.787399e+12
2.334599e+04, 3.452258e+12
2.336933e+04, 3.552649e+12
2.339270e+04, 3.502691e+12
2.341609e+04, 3.610785e+12
2.343951e+04, 3.398496e+12
2.346295e+04, 3.704355e+12
2.348641e+04, 3.708837e+12
2.350990e+04, 3.477511e+12
2.353341e+04, 2.823686e+12
2.355694e+04, 3.315170e+12
2.358050e+04, 3.080072e+12
2.360408e+04, 3.206265e+12
2.362768e+04, 3.124637e+12
2.365131e+04, 3.465571e+12
2.367496e+04, 3.190934e+12
2.369864e+04, 3.202649e+12
2.372234e+04, 3.416685e+12
2.374606e+04, 3.281481e+12
2.376980e+04, 3.382148e+12
2.379357e+04, 3.195418e+12
2.381737e+04, 2.980291e+12
2.384119e+04, 2.864902e+12
2.386503e+04, 2.711038e+12
2.388889e+04, 3.028987e+12
2.391278e+04, 2.963942e+12
2.393669e+04, 3.229411e+12
2.396063e+04, 2.781845e+12
2.398459e+04, 3.037641e+12
2.400858e+04, 2.829075e+12
2.403258e+04, 2.756262e+12
2.405662e+04, 2.961881e+12
2.408067e+04, 2.432041e+12
2.410475e+04, 2.676216e+12
2.412886e+04, 2.482575e+12
2.415299e+04, 2.672063e+12
2.417714e+04, 2.467622e+12
2.420132e+04, 2.555519e+12
2.422552e+04, 2.222905e+12
2.424974e+04, 2.511830e+12
2.427399e+04, 2.127715e+12
2.429827e+04, 2.585376e+12
2.432257e+04, 2.234227e+12
2.434689e+04, 2.138675e+12
2.437124e+04, 1.890057e+12
2.439561e+04, 2.494069e+12
2.442000e+04, 2.125929e+12
2.444442e+04, 2.044508e+12
2.446887e+04, 1.982541e+12
2.449334e+04, 2.074130e+12
2.451783e+04, 1.915924e+12
2.454235e+04, 1.547867e+12
2.456689e+04, 2.311894e+12
2.459146e+04, 2.089513e+12
2.461605e+04, 1.775223e+12
2.464066e+04, 2.228855e+12
2.466530e+04, 1.736087e+12
2.468997e+04, 1.733794e+12
2.471466e+04, 1.782651e+12
2.473937e+04, 1.433802e+12
2.476411e+04, 1.840843e+12
2.478888e+04, 1.718093e+12
2.481367e+04, 1.476072e+12
2.483848e+04, 1.940159e+12
2.486332e+04, 1.827319e+12
2.488818e+04, 1.394897e+12
2.491307e+04, 1.444904e+12
2.493798e+04, 1.798909e+12
2.496292e+04, 1.688685e+12
2.498788e+04, 1.434456e+12
2.501287e+04, 1.728106e+12
2.503788e+04, 1.306807e+12
2.506292e+04, 1.271546e+12
2.508799e+04, 1.719068e+12
2.511307e+04, 1.357998e+12
2.513819e+04, 1.384159e+12
2.516332e+04, 1.409740e+12
2.518849e+04, 1.448850e+12
2.521368e+04, 1.455413e+12
2.523889e+04, 1.279682e+12
2.526413e+04, 1.393920e+12
2.528939e+04, 1.312974e+12
2.531468e+04, 1.647975e+12
2.534000e+04, 1.359426e+12
2.536534e+04, 1.108517e+12
2.539070e+04, 1.328348e+12
2.541609e+04, 1.412069e+12
2.544151e+04, 1.157450e+12
2.546695e+04, 1.327349e+12
2.549242e+04, 1.199878e+12
2.551791e+04, 1.389611e+12
2.554343e+04, 1.308151e+12
2.556897e+04, 1.357076e+12
2.559454e+04, 1.271987e+12
2.562014e+04, 1.109229e+12
2.564576e+04, 1.300938e+12
2.567140e+04, 1.186543e+12
2.569707e+04, 1.391461e+12
2.572277e+04, 1.576135e+12
2.574849e+04, 1.157636e+12
2.577424e+04, 9.785992e+11
2.580002e+04, 1.550214e+12
2.582582e+04, 1.222864e+12
2.585164e+04, 1.394891e+12
2.587749e+04, 1.224815e+12
2.590337e+04, 1.320489e+12
2.592927e+04, 1.345654e+12
2.595520e+04, 1.151530e+12
2.598116e+04, 1.227443e+12
2.600714e+04, 1.402643e+12
2.603315e+04, 1.371896e+12
2.605918e+04, 1.493351e+12
2.608524e+04, 1.113337e+12
2.611132e+04, 1.712251e+12
2.613744e+04, 1.412649e+12
2.616357e+04, 1.394562e+12
2.618974e+04, 1.288840e+12
2.621593e+04, 1.368376e+12
2.624214e+04, 1.502472e+12
2.626838e+04, 1.307982e+12
2.629465e+04, 1.345704e+12
2.632095e+04, 1.399702e+12
2.634727e+04, 1.304331e+12
2.637362e+04, 1.641662e+12
2.639999e+04, 1.335560e+12
2.642639e+04, 1.406017e+12
2.645282e+04, 1.335089e+12
2.647927e+04, 1.432993e+12
2.650575e+04, 1.580383e+12
2.653225e+04, 1.422883e+12
2.655879e+04, 1.409765e+12
2.658534e+04, 1.761109e+12
2.661193e+04, 1.535203e+12
2.663854e+04, 1.410291e+12
2.666518e+04, 1.288366e+12
2.669185e+04, 1.283839e+12
2.671854e+04, 1.521137e+12
2.674526e+04, 1.324057e+12
2.677200e+04, 9.438355e+11
2.679877e+04, 1.383660e+12
2.682557e+04, 1.242466e+12
2.685240e+04, 1.016317e+12
2.687925e+04, 1.329136e+12
2.690613e+04, 1.436836e+12
2.693303e+04, 9.696925e+11
2.695997e+04, 9.682556e+11
2.698693e+04, 1.250281e+12
2.701391e+04, 1.271101e+12
2.704093e+04, 1.044052e+12
2.706797e+04, 1.189994e+12
2.709504e+04, 1.105230e+12
2.712213e+04, 9.323581e+11
2.714925e+04, 1.128461e+12
2.717640e+04, 1.100091e+12
2.720358e+04, 1.096402e+12
2.723078e+04, 1.057275e+12
2.725801e+04, 1.058158e+12
2.728527e+04, 9.969193e+11
2.731256e+04, 1.359353e+12
2.733987e+04, 1.275368e+12
2.736721e+04, 9.404225e+11
2.739458e+04, 9.024282e+11
2.742197e+04, 1.130118e+12
2.744939e+04, 1.130124e+12
2.747684e+04, 1.232824e+12
2.750432e+04, 1.100026e+12
2.753182e+04, 1.075634e+12
2.755936e+04, 1.036434e+12
2.758692e+04, 1.182205e+12
2.761450e+04, 1.229911e+12
2.764212e+04, 1.077922e+12
2.766976e+04, 9.161001e+11
2.769743e+04, 9.861249e+11
2.772513e+04, 1.072442e+12
2.775285e+04, 1.291363e+12
2.778060e+04, 9.980797e+11
2.780839e+04, 1.004301e+12
2.783619e+04, 1.172160e+12
2.786403e+04, 8.188891e+11
2.789189e+04, 9.970665e+11
2.791979e+04, 1.089837e+12
2.794771e+04, 1.250006e+12
2.797565e+04, 1.118610e+12
2.800363e+04, 1.143978e+12
2.803163e+04, 7.881364e+11
2.805966e+04, 9.448115e+11
2.808772e+04, 1.163116e+12
2.811581e+04, 1.291299e+12
2.814393e+04, 9.756131e+11
2.817207e+04, 1.040040e+12
2.820024e+04, 7.691275e+11
2.822844e+04, 1.121897e+12
2.825667e+04, 1.063029e+12
2.828493e+04, 1.167621e+12
2.831321e+04, 1.240055e+12
2.834153e+04, 9.881106e+11
2.836987e+04, 7.525408e+11
2.839824e+04, 1.092258e+12
2.842664e+04, 1.116816e+12
2.845506e+04, 1.060092e+12
2.848352e+04, 1.073970e+12
2.851200e+04, 1.056095e+12
2.854051e+04, 7.700285e+11
2.856905e+04, 8.950099e+11
2.859762e+04, 1.304244e+12
2.862622e+04, 1.110142e+12
2.865485e+04, 9.918497e+11
2.868350e+04, 9.990639e+11
2.871219e+04, 9.017066e+11
2.874090e+04, 8.785943e+11
2.876964e+04, 1.227779e+12
2.879841e+04, 1.070343e+12
2.882721e+04, 1.094441e+12
2.885603e+04, 9.691715e+11
2.888489e+04, 9.323242e+11
2.891377e+04, 8.485506e+11
2.894269e+04, 1.249122e+12
2.897163e+04, 1.195296e+12
2.900060e+04, 8.453939e+11
2.902960e+04, 1.071464e+12
2.905863e+04, 1.059530e+12
2.908769e+04, 6.751502e+11
2.911678e+04, 1.113143e+12
2.914590e+04, 1.098651e+12
2.917504e+04, 1.014879e+12
2.920422e+04, 9.240682e+11
2.923342e+04, 9.294247e+11
2.926265e+04, 1.025040e+12
2.929192e+04, 7.997471e+11
2.932121e+04, 1.091034e+12
2.935053e+04, 1.133998e+12
2.937988e+04, 1.132112e+12
2.940926e+04, 8.340763e+11
2.943867e+04, 9.576466e+11
2.946811e+04, 9.494658e+11
2.949758e+04, 9.203762e+11
2.952707e+04, 1.039917e+12
2.955660e+04, 9.098331e+11
2.958616e+04, 1.067795e+12
2.961574e+04, 1.020019e+12
2.964536e+04, 1.023100e+12
2.967501e+04, 8.169123e+11
2.970468e+04, 1.019286e+12
2.973439e+04, 1.018618e+12
2.976412e+04, 1.064231e+12
2.979388e+04, 1.038547e+12
2.982368e+04, 9.767643e+11
2.985350e+04, 1.011464e+12
2.988335e+04, 7.774609e+11
2.991324e+04, 1.054396e+12
2.994315e+04, 1.098513e+12
2.997309e+04, 1.031939e+12
3.000307e+04, 1.093737e+12
3.003307e+04, 1.012143e+12
3.006310e+04, 8.585012e+11
3.009317e+04, 8.258054e+11
3.012326e+04, 1.010425e+12
3.015338e+04, 1.217698e+12
3.018354e+04, 1.097432e+12
3.021372e+04, 9.263485e+11
3.024393e+04, 1.033802e+12
3.027418e+04, 1.010168e+12
3.030445e+04, 8.903530e+11
3.033476e+04, 1.080126e+12
3.036509e+04, 1.043869e+12
3.039546e+04, 1.123425e+12
3.042585e+04, 1.057097e+12
3.045628e+04, 9.091307e+11
3.048673e+04, 9.405609e+11
3.051722e+04, 8.716726e+11
3.054774e+04, 1.223837e+12
3.057829e+04, 1.045316e+12
3.060886e+04, 1.040293e+12
3.063947e+04, 1.103539e+12
3.067011e+04, 1.104811e+12
3.070078e+04, 9.264097e+11
3.073148e+04, 9.397318e+11
3.076221e+04, 1.049392e+12
3.079298e+04, 1.254121e+12
3.082377e+04, 1.055004e+12
3.085459e+04, 1.121746e+12
3.088545e+04, 9.314817e+11
3.091633e+04, 1.014235e+12
3.094725e+04, 9.591198e+11
3.097820e+04, 1.002018e+12
3.100918e+04, 1.270136e+12
3.104018e+04, 1.150183e+12
3.107122e+04, 1.066237e+12
3.110230e+04, 1.018031e+12
3.113340e+04, 9.767130e+11
3.116453e+04, 1.139469e+12
3.119570e+04, 1.052301e+12
3.122689e+04, 1.069979e+12
3.125812e+04, 1.260941e+12
3.128938e+04, 1.024641e+12
3.132067e+04, 1.005973e+12
3.135199e+04, 1.170764e+12
3.138334e+04, 1.096784e+12
3.141472e+04, 1.134023e+12
3.144614e+04, 1.034452e+12
3.147758e+04, 1.079531e+12
3.150906e+04, 1.174937e+12
3.154057e+04, 1.058376e+12
3.157211e+04, 1.021680e+12
3.160368e+04, 1.121079e+12
3.163529e+04, 1.210360e+12
3.166692e+04, 1.027965e+12
3.169859e+04, 1.110210e+12
3.173029e+04, 1.110596e+12
3.176202e+04, 1.035348e+12
3.179378e+04, 1.066667e+12
3.182557e+04, 1.269466e+12
3.185740e+04, 1.090399e+12
3.188926e+04, 1.125124e+12
3.192115e+04, 1.215348e+12
3.195307e+04, 1.036834e+12
3.198502e+04, 1.075435e+12
3.201700e+04, 1.004118e+12
3.204902e+04, 1.072530e+12
3.208107e+04, 1.231920e+12
3.211315e+04, 1.119718e+12
3.214526e+04, 1.200989e+12
3.217741e+04, 1.082985e+12
3.220959e+04, 1.205908e+12
3.224180e+04, 1.109538e+12
3.227404e+04, 1.058940e+12
3.230631e+04, 1.241168e+12
3.233862e+04, 1.202501e+12
3.237096e+04, 1.174764e+12
3.240333e+04, 1.122991e+12
3.243573e+04, 1.114782e+12
3.246817e+04, 1.162859e+12
3.250064e+04, 1.182064e+12
3.253314e+04, 1.156041e+12
3.256567e+04, 1.271445e+12
3.259824e+04, 1.282146e+12
3.263083e+04, 1.256449e+12
3.266346e+04, 1.220538e+12
3.269613e+04, 1.108366e+12
3.272882e+04, 1.210510e+12
3.276155e+04, 1.165745e+12
3.279431e+04, 1.121198e+12
3.282711e+04, 1.148769e+12
3.285994e+04, 1.170606e+12
3.289280e+04, 1.256207e+12
3.292569e+04, 1.155233e+12
3.295861e+04, 1.217863e+12
3.299157e+04, 1.111466e+12
3.302456e+04, 1.203609e+12
3.305759e+04, 1.225752e+12
3.309065e+04, 1.196375e+12
3.312374e+04, 1.214820e+12
3.315686e+04, 1.144548e+12
3.319002e+04, 1.113639e+12
3.322321e+04, 1.239664e+12
3.325643e+04, 1.246725e+12
3.328969e+04, 1.303852e+12
3.332298e+04, 1.295116e+12
3.335630e+04, 1.200521e+12
3.338966e+04, 1.065689e+12
3.342305e+04, 1.240151e+12
3.345647e+04, 1.154264e+12
3.348993e+04, 1.256801e+12
3.352342e+04, 1.306512e+12
3.355694e+04, 1.032688e+12
3.359050e+04, 1.253301e+12
3.362409e+04, 1.189884e+12
3.365771e+04, 1.260674e+12
3.369137e+04, 1.233068e+12
3.372506e+04, 1.214235e+12
3.375878e+04, 1.115612e+12
3.379254e+04, 1.139087e+12
3.382634e+04, 1.245348e+12
3.386016e+04, 1.222544e+12
3.389402e+04, 1.260403e+12
3.392792e+04, 1.230973e+12
3.396184e+04, 1.204097e+12
3.399581e+04, 1.159125e+12
3.402980e+04, 1.213726e+12
3.406383e+04, 1.282273e+12
3.409790e+04, 1.171109e+12
3.413199e+04, 1.161990e+12
3.416613e+04, 1.138588e+12
3.420029e+04, 1.174092e+12
3.423449e+04, 1.235003e+12
3.426873e+04, 1.237737e+12
3.430300e+04, 1.218942e+12
3.433730e+04, 1.262309e+12
3.437164e+04, 1.217286e+12
3.440601e+04, 1.204556e+12
3.444041e+04, 1.100726e+12
3.447485e+04, 1.195926e+12
3.450933e+04, 1.330898e+12
3.454384e+04, 1.249275e+12
3.457838e+04, 1.100780e+12
3.461296e+04, 1.208529e+12
3.464757e+04, 1.215386e+12
3.468222e+04, 1.309390e+12
3.471690e+04, 1.324976e+12
3.475162e+04, 1.266694e+12
3.478637e+04, 1.226785e+12
3.482116e+04, 1.131351e+12
3.485598e+04, 1.210954e+12
3.489083e+04, 1.187631e+12
3.492573e+04, 1.098520e+12
3.496065e+04, 1.296427e+12
3.499561e+04, 1.105575e+12
3.503061e+04, 1.330125e+12
3.506564e+04, 1.298753e+12
3.510070e+04, 1.240819e+12
3.513580e+04, 1.334760e+12
3.517094e+04, 1.163392e+12
3.520611e+04, 1.111205e+12
3.524132e+04, 1.242532e+12
3.527656e+04, 1.130529e+12
3.531184e+04, 1.334250e+12
3.534715e+04, 1.297966e+12
3.538249e+04, 1.147776e+12
3.541788e+04, 1.276609e+12
3.545329e+04, 1.046270e+12
3.548875e+04, 1.306965e+12
3.552424e+04, 1.195162e+12
3.555976e+04, 1.241774e+12
3.559532e+04, 1.228334e+12
3.563092e+04, 1.208731e+12
3.566655e+04, 1.292772e+12
3.570221e+04, 1.174502e+12
3.573792e+04, 1.155151e+12
3.577365e+04, 1.169003e+12
3.580943e+04, 1.278606e+12
3.584524e+04, 1.212273e+12
3.588108e+04, 1.273707e+12
3.591696e+04, 1.273492e+12
3.595288e+04, 1.266714e+12
3.598883e+04, 1.190519e+12
3.602482e+04, 1.089949e+12
3.606085e+04, 1.267210e+12
3.609691e+04, 1.261031e+12
3.613300e+04, 1.214669e+12
3.616914e+04, 1.170908e+12
3.620531e+04, 1.227620e+12
3.624151e+04, 1.194421e+12
3.627775e+04, 1.293498e+12
3.631403e+04, 1.260765e+12
3.635035e+04, 1.046403e+12
3.638670e+04, 1.206104e+12
3.642308e+04, 1.261074e+12
3.645951e+04, 1.296282e+12
3.649596e+04, 1.201520e+12
3.653246e+04, 1.172603e+12
3.656899e+04, 1.206074e+12
3.660556e+04, 1.186940e+12
3.664217e+04, 1.138893e+12
3.667881e+04, 1.198786e+12
3.671549e+04, 1.249595e+12
3.675220e+04, 1.171119e+12
3.678896e+04, 1.142083e+12
3.682575e+04, 1.260607e+12
3.686257e+04, 1.265663e+12
3.689943e+04, 1.214025e+12
3.693633e+04, 1.222197e+12
3.697327e+04, 1.225170e+12
3.701024e+04, 1.070519e+12
3.704725e+04, 1.263375e+12
3.708430e+04, 1.101057e+12
3.712138e+04, 1.308943e+12
3.715851e+04, 1.223185e+12
3.719566e+04, 1.235746e+12
3.723286e+04, 1.270279e+12
3.727009e+04, 1.259595e+12
3.730736e+04, 1.252393e+12
3.734467e+04, 1.064524e+12
3.738202e+04, 1.119373e+12
3.741940e+04, 1.178813e+12
3.745682e+04, 1.212500e+12
3.749427e+04, 1.261514e+12
3.753177e+04, 1.257170e+12
3.756930e+04, 1.245071e+12
3.760687e+04, 1.256592e+12
3.764448e+04, 1.209826e+12
3.768212e+04, 1.261951e+12
3.771980e+04, 9.888246e+11
3.775752e+04, 1.281457e+12
3.779528e+04, 1.267242e+12
3.783307e+04, 1.240337e+12
3.787091e+04, 1.222201e+12
3.790878e+04, 1.227934e+12
3.794669e+04, 1.246317e+12
3.798463e+04, 1.235483e+12
3.802262e+04, 1.268475e+12
3.806064e+04, 1.120843e+12
3.809870e+04, 1.028169e+12
3.813680e+04, 1.252693e+12
3.817494e+04, 1.225129e+12
3.821311e+04, 1.226236e+12
3.825133e+04, 1.203929e+12
3.828958e+04, 1.157683e+12
3.832787e+04, 1.226723e+12
3.836619e+04, 1.179224e+12
3.840456e+04, 1.150449e+12
3.844297e+04, 1.222220e+12
3.848141e+04, 1.020005e+12
3.851989e+04, 1.151542e+12
3.855841e+04, 1.230250e+12
3.859697e+04, 1.270454e+12
3.863556e+04, 1.200953e+12
3.867420e+04, 1.173766e+12
3.871287e+04, 1.182252e+12
3.875159e+04, 1.154792e+12
3.879034e+04, 1.143341e+12
3.882913e+04, 1.224684e+12
3.886796e+04, 1.066484e+12
3.890683e+04, 1.057758e+12
3.894573e+04, 1.203235e+12
3.898468e+04, 1.158939e+12
3.902366e+04, 1.192027e+12
3.906269e+04, 1.173976e+12
3.910175e+04, 1.137846e+12
3.914085e+04, 1.075830e+12
3.917999e+04, 1.175613e+12
3.921917e+04, 1.157828e+12
3.925839e+04, 1.148025e+12
3.929765e+04, 1.060509e+12
3.933695e+04, 1.080024e+12
3.937628e+04, 1.165547e+12
3.941566e+04, 1.126464e+12
3.945508e+04, 1.134914e+12
3.949453e+04, 1.121099e+12
3.953403e+04, 1.111316e+12
3.957356e+04, 1.089005e+12
3.961313e+04, 1.141802e+12
3.965275e+04, 1.060266e+12
3.969240e+04, 1.082644e+12
3.973209e+04, 1.007308e+12
3.977182e+04, 9.972163e+11
3.981160e+04, 1.048278e+12
3.985141e+04, 1.091674e+12
3.989126e+04, 1.064537e+12
3.993115e+04, 1.047130e+12
3.997108e+04, 1.047440e+12
4.001105e+04, 9.919541e+11
4.005106e+04, 9.696083e+11
4.009111e+04, 9.850960e+11
4.013121e+04, 9.912980e+11
4.017134e+04, 9.698529e+11
4.021151e+04, 9.040139e+11
4.025172e+04, 9.388487e+11
4.029197e+04, 9.381363e+11
4.033226e+04, 9.760417e+11
4.037260e+04, 1.008890e+12
4.041297e+04, 9.256180e+11
4.045338e+04, 8.822945e+11
4.049383e+04, 8.591378e+11
4.053433e+04, 9.286356e+11
4.057486e+04, 9.115231e+11
4.061544e+04, 8.220636e+11
4.065605e+04, 8.808821e+11
4.069671e+04, 8.944402e+11
4.073741e+04, 8.743362e+11
4.077814e+04, 8.237253e+11
4.081892e+04, 8.452599e+11
4.085974e+04, 7.732698e+11
4.090060e+04, 7.955833e+11
4.094150e+04, 8.355479e+11
4.098244e+04, 8.106259e+11
4.102342e+04, 8.074195e+11
4.106445e+04, 8.576704e+11
4.110551e+04, 7.679629e+11
4.114662e+04, 8.064195e+11
4.118776e+04, 7.575431e+11
4.122895e+04, 7.916003e+11
4.127018e+04, 7.986762e+11
4.131145e+04, 7.105825e+11
4.135276e+04, 8.299001e+11
4.139412e+04, 7.210037e+11
4.143551e+04, 7.723580e+11
4.147695e+04, 8.068279e+11
4.151842e+04, 8.097255e+11
4.155994e+04, 7.157726e+11
4.160150e+04, 7.250157e+11
4.164310e+04, 6.934506e+11
4.168475e+04, 7.140791e+11
4.172643e+04, 7.080573e+11
4.176816e+04, 7.315315e+11
4.180992e+04, 7.669118e+11
4.185173e+04, 6.564784e+11
4.189359e+04, 7.355178e+11
4.193548e+04, 7.445626e+11
4.197742e+04, 7.060036e+11
4.201939e+04, 7.452003e+11
4.206141e+04, 7.006196e+11
4.210347e+04, 7.106888e+11
4.214558e+04, 6.084880e+11
4.218772e+04, 6.798613e+11
4.222991e+04, 6.644662e+11
4.227214e+04, 7.109679e+11
4.231441e+04, 6.911275e+11
4.235673e+04, 7.306925e+11
4.239908e+04, 6.598378e+11
4.244148e+04, 6.266065e+11
4.248392e+04, 6.425584e+11
4.252641e+04, 5.811867e+11
4.256893e+04, 6.486934e+11
4.261150e+04, 6.593920e+11
4.265411e+04, 6.485198e+11
4.269677e+04, 6.458430e+11
4.273947e+04, 6.047531e+11
4.278221e+04, 6.867449e+11
4.282499e+04, 6.108818e+11
4.286781e+04, 6.771356e+11
4.291068e+04, 6.355439e+11
4.295359e+04, 5.823307e+11
4.299654e+04, 6.046511e+11
4.303954e+04, 5.434611e+11
4.308258e+04, 5.770529e+11
4.312566e+04, 5.800052e+11
4.316879e+04, 5.728506e+11
4.321196e+04, 5.902146e+11
4.325517e+04, 5.809912e+11
4.329842e+04, 5.750142e+11
4.334172e+04, 5.813455e+11
4.338506e+04, 5.254414e+11
4.342845e+04, 5.454300e+11
4.347188e+04, 5.466416e+11
4.351535e+04, 5.425208e+11
4.355887e+04, 5.242938e+11
4.360242e+04, 5.701749e+11
4.364603e+04, 5.392376e+11
4.368967e+04, 4.987198e+11
4.373336e+04, 5.184095e+11
4.377710e+04, 5.118205e+11
4.382087e+04, 4.972577e+11
4.386469e+04, 5.104379e+11
4.390856e+04, 5.564913e+11
4.395247e+04, 4.784924e+11
4.399642e+04, 4.770387e+11
4.404042e+04, 4.778494e+11
4.408446e+04, 4.960785e+11
4.412854e+04, 5.173127e+11
4.417267e+04, 4.786251e+11
4.421684e+04, 4.670340e+11
4.426106e+04, 4.605054e+11
4.430532e+04, 4.438379e+11
4.434963e+04, 4.028341e+11
4.439398e+04, 4.314190e+11
4.443837e+04, 4.792435e+11
4.448281e+04, 4.661362e+11
4.452729e+04, 4.889758e+11
4.457182e+04, 4.358514e+11
4.461639e+04, 4.615866e+11
4.466101e+04, 4.210103e+11
4.470567e+04, 4.183970e+11
4.475037e+04, 4.929030e+11
4.479512e+04, 4.137183e+11
4.483992e+04, 4.605219e+11
4.488476e+04, 4.381890e+11
4.492964e+04, 4.347411e+11
4.497457e+04, 4.464773e+11
4.501955e+04, 4.408994e+11
4.506457e+04, 3.852158e+11
4.510963e+04, 4.277451e+11
4.515474e+04, 4.501770e+11
4.519990e+04, 3.786161e+11
4.524510e+04, 4.345653e+11
4.529034e+04, 4.387362e+11
4.533563e+04, 3.589374e+11
4.538097e+04, 4.426363e+11
4.542635e+04, 4.224437e+11
4.547177e+04, 3.648596e+11
4.551725e+04, 3.742086e+11
4.556276e+04, 4.412331e+11
4.560833e+04, 3.979537e+11
4.565393e+04, 3.839882e+11
4.569959e+04, 3.850708e+11
4.574529e+04, 3.642516e+11
4.579103e+04, 4.008461e+11
4.583682e+04, 4.058140e+11
4.588266e+04, 3.565693e+11
4.592854e+04, 4.234791e+11
4.597447e+04, 3.765101e+11
4.602045e+04, 4.040670e+11
4.606647e+04, 4.128860e+11
4.611253e+04, 3.993025e+11
4.615865e+04, 3.080337e+11
4.620480e+04, 4.145112e+11
4.625101e+04, 3.288458e+11
4.629726e+04, 4.172167e+11
4.634356e+04, 3.954327e+11
4.638990e+04, 3.464538e+11
4.643629e+04, 3.675257e+11
4.648273e+04, 3.421795e+11
4.652921e+04, 3.586349e+11
4.657574e+04, 3.910618e+11
4.662231e+04, 3.709872e+11
4.666894e+04, 3.927659e+11
4.671561e+04, 3.716529e+11
4.676232e+04, 3.763280e+11
4.680908e+04, 3.237677e+11
4.685589e+04, 4.020643e+11
4.690275e+04, 3.356834e+11
4.694965e+04, 4.116262e+11
4.699660e+04, 3.562665e+11
4.704360e+04, 4.080421e+11
4.709064e+04, 3.182244e+11
4.713773e+04, 3.676579e+11
4.718487e+04, 3.250928e+11
4.723205e+04, 3.999396e+11
4.727929e+04, 3.257168e+11
4.732657e+04, 3.573405e+11
4.737389e+04, 3.555528e+11
4.742127e+04, 3.822533e+11
4.746869e+04, 3.553485e+11
4.751616e+04, 3.606031e+11
4.756367e+04, 3.494546e+11
4.761124e+04, 3.492232e+11
4.765885e+04, 2.986927e+11
4.770651e+04, 3.847841e+11
4.775421e+04, 3.089907e+11
4.780197e+04, 3.508049e+11
4.784977e+04, 2.969296e+11
4.789762e+04, 3.807749e+11
4.794552e+04, 2.862139e+11
4.799346e+04, 4.099063e+11
4.804146e+04, 3.200847e+11
4.808950e+04, 3.586556e+11
4.813759e+04, 2.733466e+11
4.818572e+04, 3.633012e+11
4.823391e+04, 3.463351e+11
4.828214e+04, 3.811952e+11
4.833043e+04, 3.221242e+11
4.837876e+04, 3.472750e+11
4.842713e+04, 2.939068e+11
4.847556e+04, 3.711366e+11
4.852404e+04, 3.134889e+11
4.857256e+04, 3.340309e+11
4.862113e+04, 3.489697e+11
4.866976e+04, 3.063862e+11
4.871842e+04, 3.248991e+11
4.876714e+04, 3.002880e+11
4.881591e+04, 3.713778e+11
4.886473e+04, 2.852310e+11
4.891359e+04, 3.466874e+11
4.896250e+04, 2.808998e+11
4.901147e+04, 3.727943e+11
4.906048e+04, 3.257525e+11
4.910954e+04, 3.267325e+11
4.915865e+04, 3.282296e+11
4.920781e+04, 3.316574e+11
4.925702e+04, 2.816408e+11
4.930627e+04, 2.995047e+11
4.935558e+04, 2.871547e+11
4.940493e+04, 3.500365e+11
4.945434e+04, 3.212680e+11
4.950379e+04, 2.904419e+11
4.955330e+04, 2.809955e+11
4.960285e+04, 2.933582e+11
4.965245e+04, 2.954383e+11
4.970211e+04, 2.583892e+11
4.975181e+04, 3.715595e+11
4.980156e+04, 2.952482e+11
4.985136e+04, 3.510620e+11
4.990121e+04, 2.804358e+11
4.995111e+04, 2.813081e+11
5.000106e+04, 2.829520e+11
5.005107e+04, 3.095964e+11
5.010112e+04, 2.932320e+11
5.015122e+04, 2.800656e+11
5.020137e+04, 2.370024e+11
5.025157e+04, 2.728194e+11
5.030182e+04, 2.632200e+11
5.035212e+04, 3.099496e+11
5.040248e+04, 2.690792e+11
5.045288e+04, 2.633173e+11
5.050333e+04, 3.473581e+11
5.055383e+04, 2.735568e+11
5.060439e+04, 2.745703e+11
5.065499e+04, 2.629213e+11
5.070565e+04, 3.121479e+11
5.075635e+04, 2.977367e+11
5.080711e+04, 2.231289e+11
5.085792e+04, 2.759030e+11
5.090878e+04, 2.790008e+11
5.095968e+04, 2.927180e+11
5.101064e+04, 3.140042e+11
5.106165e+04, 2.481616e+11
5.111272e+04, 2.572942e+11
5.116383e+04, 2.713257e+11
5.121499e+04, 2.789382e+11
5.126621e+04, 2.506762e+11
5.131747e+04, 2.326933e+11
5.136879e+04, 2.921378e+11
5.142016e+04, 2.452436e+11
5.147158e+04, 2.245137e+11
5.152305e+04, 3.040166e+11
5.157457e+04, 2.604131e+11
5.162615e+04, 2.387830e+11
5.167778e+04, 2.494203e+11
5.172945e+04, 2.338388e+11
5.178118e+04, 2.708781e+11
5.183296e+04, 2.648030e+11
5.188480e+04, 2.707875e+11
5.193668e+04, 2.695851e+11
5.198862e+04, 2.348613e+11
5.204061e+04, 2.440407e+11
5.209265e+04, 2.619434e+11
5.214474e+04, 2.637064e+11
5.219688e+04, 2.519679e+11
5.224908e+04, 2.400462e+11
5.230133e+04, 2.622482e+11
5.235363e+04, 2.719615e+11
5.240599e+04, 2.136310e+11
5.245839e+04, 2.482903e+11
5.251085e+04, 2.608478e+11
5.256336e+04, 2.372610e+11
5.261592e+04, 2.957708e+11
5.266854e+04, 2.513900e+11
5.272121e+04, 2.411419e+11
5.277393e+04, 2.100275e+11
5.282670e+04, 2.267943e+11
5.287953e+04, 2.457002e+11
5.293241e+04, 2.273263e+11
5.298534e+04, 2.376261e+11
5.303833e+04, 2.614579e+11
5.309137e+04, 2.284179e+11
5.314446e+04, 2.652778e+11
5.319760e+04, 2.068848e+11
5.325080e+04, 2.534229e+11
5.330405e+04, 2.611652e+11
5.335735e+04, 2.470242e+11
5.341071e+04, 2.342361e+11
5.346412e+04, 2.064766e+11
5.351759e+04, 2.082363e+11
5.357110e+04, 2.547812e+11
5.362468e+04, 2.313890e+11
5.367830e+04, 2.329866e+11
5.373198e+04, 2.452656e+11
5.378571e+04, 2.218657e+11
5.383950e+04, 2.500391e+11
5.389334e+04, 2.005430e+11
5.394723e+04, 2.425294e+11
5.400118e+04, 2.480827e+11
5.405518e+04, 2.132515e+11
5.410923e+04, 2.010141e+11
5.416334e+04, 2.069368e+11
5.421751e+04, 1.960744e+11
5.427172e+04, 2.129769e+11
5.432599e+04, 2.171622e+11
5.438032e+04, 2.093444e+11
5.443470e+04, 2.255197e+11
5.448914e+04, 2.260546e+11
5.454362e+04, 2.116658e+11
5.459817e+04, 2.291016e+11
5.465277e+04, 2.072787e+11
5.470742e+04, 2.232324e+11
5.476213e+04, 2.052767e+11
5.481689e+04, 2.271285e+11
5.487171e+04, 2.121047e+11
5.492658e+04, 2.123855e+11
5.498150e+04, 2.422459e+11
5.503649e+04, 2.128651e+11
5.509152e+04, 2.109013e+11
5.514661e+04, 2.014877e+11
5.520176e+04, 1.930741e+11
5.525696e+04, 1.909781e+11
5.531222e+04, 1.929870e+11
5.536753e+04, 2.193628e+11
5.542290e+04, 2.218221e+11
5.547832e+04, 1.887054e+11
5.553380e+04, 2.061788e+11
5.558933e+04, 1.921760e+11
5.564492e+04, 1.833973e+11
5.570057e+04, 2.046338e+11
5.575627e+04, 2.040984e+11
5.581202e+04, 1.858652e+11
5.586784e+04, 1.939793e+11
5.592370e+04, 2.137746e+11
5.597963e+04, 2.265998e+11
5.603561e+04, 1.982681e+11
5.609164e+04, 2.088404e+11
5.614774e+04, 1.982512e+11
5.620388e+04, 1.871928e+11
5.626009e+04, 2.084623e+11
5.631635e+04, 1.900867e+11
5.637266e+04, 2.330108e+11
5.642904e+04, 1.908981e+11
5.648546e+04, 1.887752e+11
5.654195e+04, 1.681345e+11
5.659849e+04, 2.099676e+11
5.665509e+04, 1.785624e+11
5.671175e+04, 2.251618e+11
5.676846e+04, 1.788397e+11
5.682523e+04, 1.871548e+11
5.688205e+04, 1.866933e+11
5.693893e+04, 1.838594e+11
5.699587e+04, 1.917207e+11
5.705287e+04, 2.128373e+11
5.710992e+04, 1.605163e+11
5.716703e+04, 1.764073e+11
5.722420e+04, 1.801597e+11
5.728142e+04, 1.826286e+11
5.733870e+04, 1.534389e+11
5.739604e+04, 1.861740e+11
5.745344e+04, 1.921946e+11
5.751089e+04, 2.051577e+11
5.756840e+04, 2.044222e+11
5.762597e+04, 1.719818e+11
5.768360e+04, 1.805330e+11
5.774128e+04, 2.009991e+11
5.779902e+04, 1.490500e+11
5.785682e+04, 1.822547e+11
5.791468e+04, 1.926187e+11
5.797259e+04, 1.688987e+11
5.803056e+04, 1.955536e+11
5.808860e+04, 1.973372e+11
5.814668e+04, 1.813507e+11
5.820483e+04, 1.651344e+11
5.826304e+04, 1.878338e+11
5.832130e+04, 1.491283e+11
5.837962e+04, 1.670751e+11
5.843800e+04, 1.688848e+11
5.849644e+04, 1.650076e+11
5.855493e+04, 1.749699e+11
5.861349e+04, 1.921664e+11
5.867210e+04, 1.782700e+11
5.873077e+04, 1.646263e+11
5.878951e+04, 1.687219e+11
5.884829e+04, 1.639851e+11
5.890714e+04, 1.995217e+11
5.896605e+04, 1.653222e+11
5.902502e+04, 1.542335e+11
5.908404e+04, 1.843154e+11
5.914313e+04, 1.887700e+11
5.920227e+04, 1.763847e+11
5.926147e+04, 1.959853e+11
5.932073e+04, 1.724951e+11
5.938005e+04, 1.578695e+11
5.943943e+04, 1.683334e+11
5.949887e+04, 1.521892e+11
5.955837e+04, 1.929629e+11
5.961793e+04, 1.753874e+11
5.967755e+04, 1.588624e+11
5.973723e+04, 1.895955e+11
5.979696e+04, 1.799869e+11
5.985676e+04, 1.736421e+11
5.991662e+04, 1.532439e+11
5.997653e+04, 1.911375e+11
6.003651e+04, 1.792705e+11
6.009655e+04, 1.958179e+11
6.015664e+04, 1.667622e+11
6.021680e+04, 1.645138e+11
6.027702e+04, 1.786321e+11
6.033729e+04, 1.565870e+11
6.039763e+04, 1.643645e+11
6.045803e+04, 1.451904e+11
6.051849e+04, 1.505772e+11
6.057900e+04, 1.716894e+11
6.063958e+04, 1.814925e+11
6.070022e+04, 1.797200e+11
6.076092e+04, 1.645003e+11
6.082168e+04, 1.938973e+11
6.088251e+04, 1.824162e+11
6.094339e+04, 1.812520e+11
6.100433e+04, 1.566060e+11
6.106534e+04, 1.696899e+11
6.112640e+04, 1.477238e+11
6.118753e+04, 1.596590e+11
6.124872e+04, 1.812811e+11
6.130996e+04, 2.004719e+11
6.137127e+04, 1.981813e+11
6.143265e+04, 1.612234e+11
6.149408e+04, 1.739397e+11
6.155557e+04, 1.662640e+11
6.161713e+04, 1.652428e+11
6.167874e+04, 1.653501e+11
6.174042e+04, 1.573201e+11
6.180216e+04, 1.841507e+11
6.186397e+04, 1.624417e+11
6.192583e+04, 1.766305e+11
6.198776e+04, 1.710691e+11
6.204974e+04, 1.718924e+11
6.211179e+04, 1.792944e+11
6.217390e+04, 1.582045e+11
6.223608e+04, 1.762842e+11
6.229831e+04, 1.840234e+11
6.236061e+04, 1.686899e+11
6.242297e+04, 1.480009e+11
6.248540e+04, 1.696827e+11
6.254788e+04, 1.804144e+11
6.261043e+04, 1.595166e+11
6.267304e+04, 1.749686e+11
6.273571e+04, 1.679827e+11
6.279845e+04, 1.546703e+11
6.286125e+04, 1.873210e+11
6.292411e+04, 1.653871e+11
6.298703e+04, 1.665858e+11
6.305002e+04, 1.816076e+11
6.311307e+04, 1.727111e+11
6.317618e+04, 1.507738e+11
6.323936e+04, 1.672171e+11
6.330260e+04, 1.762134e+11
6.336590e+04, 1.574001e+11
6.342927e+04, 1.537836e+11
6.349270e+04, 1.671127e+11
6.355619e+04, 1.365211e+11
6.361975e+04, 1.699713e+11
6.368337e+04, 1.697990e+11
6.374705e+04, 1.541370e+11
6.381080e+04, 1.495948e+11
6.387461e+04, 1.293013e+11
6.393848e+04, 1.659680e+11
6.400242e+04, 1.730001e+11
6.406642e+04, 1.403998e+11
6.413049e+04, 1.248213e+11
6.419462e+04, 1.331218e+11
6.425881e+04, 1.662259e+11
6.432307e+04, 1.356302e+11
6.438740e+04, 1.452299e+11
6.445178e+04, 1.459384e+11
6.451623e+04, 1.228278e+11
6.458075e+04, 1.295993e+11
6.464533e+04, 1.478800e+11
6.470998e+04, 9.938625e+10
6.477469e+04, 1.128691e+11
6.483946e+04, 1.075969e+11
6.490430e+04, 1.324273e+11
6.496921e+04, 1.159504e+11
6.503417e+04, 1.080860e+11
6.509921e+04, 1.321982e+11
6.516431e+04, 1.111982e+11
6.522947e+04, 1.207309e+11
6.529470e+04, 1.115417e+11
6.536000e+04, 1.208681e+11
6.542536e+04, 1.131143e+11
6.549078e+04, 1.095861e+11
6.555627e+04, 1.136070e+11
6.562183e+04, 1.013861e+11
6.568745e+04, 1.020736e+11
6.575314e+04, 1.048242e+11
6.581889e+04, 1.228942e+11
6.588471e+04, 1.103268e+11
6.595059e+04, 7.744027e+10
6.601655e+04, 1.025963e+11
6.608256e+04, 1.180390e+11
6.614864e+04, 9.826407e+10
6.621479e+04, 8.546227e+10
6.628101e+04, 9.206201e+10
6.634729e+04, 9.203319e+10
6.641364e+04, 9.318363e+10
6.648005e+04, 1.116815e+11
6.654653e+04, 1.026217e+11
6.661308e+04, 9.873778e+10
6.667969e+04, 1.020981e+11
6.674637e+04, 1.041861e+11
6.681312e+04, 9.433861e+10
6.687993e+04, 8.715024e+10
6.694681e+04, 1.041737e+11
6.701376e+04, 1.038801e+11
6.708077e+04, 1.095626e+11
6.714785e+04, 9.386303e+10
6.721500e+04, 9.654877e+10
6.728221e+04, 9.807971e+10
6.734949e+04, 1.004701e+11
6.741684e+04, 1.047425e+11
6.748426e+04, 9.303278e+10
6.755175e+04, 9.986716e+10
6.761930e+04, 1.094463e+11
6.768692e+04, 9.482388e+10
6.775460e+04, 9.345987e+10
6.782236e+04, 9.130663e+10
6.789018e+04, 9.188664e+10
6.795807e+04, 9.072364e+10
6.802603e+04, 9.908929e+10
6.809405e+04, 9.248809e+10
6.816215e+04, 8.050034e+10
6.823031e+04, 9.254283e+10
6.829854e+04, 8.615261e+10
6.836684e+04, 7.396931e+10
6.843521e+04, 1.051155e+11
6.850364e+04, 9.563168e+10
6.857215e+04, 8.678064e+10
6.864072e+04, 8.917106e+10
6.870936e+04, 8.700133e+10
6.877807e+04, 1.011821e+11
6.884685e+04, 8.606513e+10
6.891569e+04, 9.818705e+10
6.898461e+04, 9.913643e+10
6.905359e+04, 8.510492e+10
6.912265e+04, 9.900667e+10
6.919177e+04, 8.678498e+10
6.926096e+04, 9.113047e+10
6.933022e+04, 9.646483e+10
6.939955e+04, 9.009522e+10
6.946895e+04, 9.484449e+10
6.953842e+04, 9.282104e+10
6.960796e+04, 8.347960e+10
6.967757e+04, 8.775943e+10
6.974724e+04, 9.420967e+10
6.981699e+04, 8.986624e+10
6.988681e+04, 9.741922e+10
6.995670e+04, 1.028495e+11
7.002665e+04, 8.702451e+10
7.009668e+04, 7.778551e+10
7.016678e+04, 9.029175e+10
7.023694e+04, 7.884122e+10
7.030718e+04, 8.555086e+10
7.037749e+04, 9.977377e+10
7.044786e+04, 7.746028e+10
7.051831e+04, 7.960068e+10
7.058883e+04, 9.309766e+10
7.065942e+04, 9.272280e+10
7.073008e+04, 8.023216e+10
7.080081e+04, 8.278536e+10
7.087161e+04, 8.582377e+10
7.094248e+04, 8.088404e+10
7.101342e+04, 8.864375e+10
7.108444e+04, 7.963246e+10
7.115552e+04, 8.533985e+10
7.122668e+04, 7.727305e+10
7.129790e+04, 8.811623e+10
7.136920e+04, 8.330996e+10
7.144057e+04, 8.393130e+10
7.151201e+04, 7.865093e+10
7.158352e+04, 9.490736e+10
7.165511e+04, 9.535751e+10
7.172676e+04, 8.238978e+10
7.179849e+04, 9.297246e+10
7.187029e+04, 9.120385e+10
7.194216e+04, 8.441756e+10
7.201410e+04, 8.284599e+10
7.208611e+04, 8.131888e+10
7.215820e+04, 8.442166e+10
7.223036e+04, 8.451975e+10
7.230259e+04, 8.253034e+10
7.237489e+04, 8.015800e+10
7.244727e+04, 8.350018e+10
7.251971e+04, 8.549714e+10
7.259223e+04, 7.896140e+10
7.266482e+04, 8.962727e+10
7.273749e+04, 7.529343e+10
7.281023e+04, 8.599618e+10
7.288304e+04, 8.190260e+10
7.295592e+04, 7.469525e+10
7.302888e+04, 7.605440e+10
7.310191e+04, 8.701578e+10
7.317501e+04, 8.574107e+10
7.324818e+04, 8.478964e+10
7.332143e+04, 7.138824e+10
7.339475e+04, 7.411705e+10
7.346815e+04, 7.280068e+10
7.354161e+04, 8.231803e+10
7.361516e+04, 7.513050e+10
7.368877e+04, 8.199237e+10
7.376246e+04, 7.065711e+10
7.383622e+04, 7.705035e+10
7.391006e+04, 8.618593e+10
7.398397e+04, 8.250816e+10
7.405795e+04, 7.981913e+10
7.413201e+04, 7.708569e+10
7.420614e+04, 7.515957e+10
7.428035e+04, 7.647912e+10
7.435463e+04, 6.729039e+10
7.442898e+04, 7.758588e+10
7.450341e+04, 8.524810e+10
7.457792e+04, 7.378196e+10
7.465249e+04, 7.606894e+10
7.472715e+04, 7.278667e+10
7.480187e+04, 7.617459e+10
7.487668e+04, 9.055505e+10
7.495155e+04, 7.167273e+10
7.502650e+04, 7.428228e+10
7.510153e+04, 7.989570e+10
7.517663e+04, 7.711470e+10
7.525181e+04, 7.715806e+10
7.532706e+04, 6.952076e+10
7.540239e+04, 6.953302e+10
7.547779e+04, 7.675389e+10
7.555327e+04, 7.420642e+10
7.562882e+04, 8.235601e+10
7.570445e+04, 7.019012e+10
7.578015e+04, 6.838769e+10
7.585593e+04, 6.523088e+10
7.593179e+04, 7.503197e+10
7.600772e+04, 6.103947e+10
7.608373e+04, 6.521913e+10
7.615981e+04, 6.318051e+10
7.623597e+04, 7.496647e+10
7.631221e+04, 6.310377e+10
7.638852e+04, 7.120027e+10
7.646491e+04, 7.094306e+10
7.654138e+04, 6.820582e+10
7.661792e+04, 6.503088e+10
7.669453e+04, 6.526717e+10
7.677123e+04, 6.898220e+10
7.684800e+04, 7.034172e+10
7.692485e+04, 6.783706e+10
7.700177e+04, 6.870119e+10
7.707877e+04, 6.312996e+10
7.715585e+04, 6.538259e+10
7.723301e+04, 6.836635e+10
7.731024e+04, 6.687833e+10
7.738755e+04, 5.832195e+10
7.746494e+04, 5.894447e+10
7.754241e+04, 6.537658e+10
7.761995e+04, 6.220723e+10
7.769757e+04, 6.093445e+10
7.777527e+04, 6.635719e+10
7.785304e+04, 6.454541e+10
7.793089e+04, 6.583727e+10
7.800882e+04, 5.924318e+10
7.808683e+04, 5.828450e+10
7.816492e+04, 6.224286e+10
7.824308e+04, 6.974548e+10
7.832133e+04, 5.959553e+10
7.839965e+04, 6.579782e+10
7.847805e+04, 6.747978e+10
7.855653e+04, 5.852800e+10
7.863508e+04, 5.927286e+10
7.871372e+04, 5.713412e+10
7.879243e+04, 6.033906e+10
7.887122e+04, 5.262257e+10
7.895010e+04, 5.274276e+10
7.902905e+04, 5.744335e+10
7.910808e+04, 5.635086e+10
7.918718e+04, 6.094624e+10
7.926637e+04, 5.681997e+10
7.934564e+04, 6.194473e+10
7.942498e+04, 5.984172e+10
7.950441e+04, 6.127445e+10
7.958391e+04, 5.324010e+10
7.966350e+04, 5.516544e+10
7.974316e+04, 5.848480e+10
7.982290e+04, 5.322291e+10
7.990273e+04, 5.619737e+10
7.998263e+04, 6.057013e+10
8.006261e+04, 5.599968e+10
8.014267e+04, 5.796095e+10
8.022282e+04, 5.482046e+10
8.030304e+04, 6.078416e+10
8.038334e+04, 5.528305e+10
8.046373e+04, 5.385959e+10
8.054419e+04, 5.531378e+10
8.062473e+04, 5.774043e+10
8.070536e+04, 5.546158e+10
8.078606e+04, 5.463356e+10
8.086685e+04, 6.056355e+10
8.094772e+04, 5.581718e+10
8.102866e+04, 5.117589e+10
8.110969e+04, 5.271129e+10
8.119080e+04, 5.535906e+10
8.127199e+04, 5.381787e+10
8.135326e+04, 5.948375e+10
8.143462e+04, 5.611010e+10
8.151605e+04, 5.382160e+10
8.159757e+04, 4.996326e+10
8.167917e+04, 5.601233e+10
8.176085e+04, 5.607376e+10
8.184261e+04, 5.531001e+10
8.192445e+04, 5.264397e+10
8.200637e+04, 5.174938e+10
8.208838e+04, 5.035343e+10
8.217047e+04, 5.298686e+10
8.225264e+04, 5.336296e+10
8.233489e+04, 5.151899e+10
8.241723e+04, 5.266064e+10
8.249964e+04, 5.479266e+10
8.258214e+04, 5.650112e+10
8.266473e+04, 4.940775e+10
8.274739e+04, 5.414270e+10
8.283014e+04, 4.853159e+10
8.291297e+04, 5.428662e+10
8.299588e+04, 5.423008e+10
8.307888e+04, 5.314312e+10
8.316196e+04, 5.162687e+10
8.324512e+04, 4.706559e+10
8.332836e+04, 4.929603e+10
8.341169e+04, 5.072638e+10
8.349510e+04, 4.976629e+10
8.357860e+04, 5.152367e+10
8.366218e+04, 5.206549e+10
8.374584e+04, 4.660916e+10
8.382958e+04, 4.754184e+10
8.391341e+04, 4.738476e+10
8.399733e+04, 5.479514e+10
8.408132e+04, 5.395382e+10
8.416541e+04, 5.481526e+10
8.424957e+04, 4.832928e+10
8.433382e+04, 5.141615e+10
8.441815e+04, 5.024066e+10
8.450257e+04, 4.808762e+10
8.458708e+04, 4.856067e+10
8.467166e+04, 5.239825e+10
8.475633e+04, 5.189884e+10
8.484109e+04, 4.829282e+10
8.492593e+04, 4.687575e+10
8.501086e+04, 4.494239e+10
8.509587e+04, 5.011977e+10
8.518096e+04, 4.966270e+10
8.526614e+04, 5.079652e+10
8.535141e+04, 4.835322e+10
8.543676e+04, 4.735753e+10
8.552220e+04, 4.890720e+10
8.560772e+04, 4.651861e+10
8.569333e+04, 4.725302e+10
8.577902e+04, 4.921763e+10
8.586480e+04, 4.938426e+10
8.595067e+04, 4.828088e+10
8.603662e+04, 5.119312e+10
8.612265e+04, 4.923759e+10
8.620878e+04, 4.588421e+10
8.629499e+04, 4.594178e+10
8.638128e+04, 4.993163e+10
8.646766e+04, 4.869714e+10
8.655413e+04, 4.644578e+10
8.664068e+04, 5.136044e+10
8.672732e+04, 4.551339e+10
8.681405e+04, 4.378142e+10
8.690087e+04, 4.948821e+10
8.698777e+04, 5.143166e+10
8.707475e+04, 4.661134e+10
8.716183e+04, 4.682374e+10
8.724899e+04, 4.591969e+10
8.733624e+04, 4.322811e+10
8.742358e+04, 4.638717e+10
8.751100e+04, 4.679144e+10
8.759851e+04, 4.106491e+10
8.768611e+04, 4.503495e+10
8.777379e+04, 4.840039e+10
8.786157e+04, 4.480351e+10
8.794943e+04, 4.535683e+10
8.803738e+04, 4.222518e+10
8.812542e+04, 4.503878e+10
8.821354e+04, 4.432260e+10
8.830176e+04, 4.552189e+10
8.839006e+04, 4.279673e+10
8.847845e+04, 4.803244e+10
8.856693e+04, 4.571038e+10
8.865549e+04, 4.454649e+10
8.874415e+04, 4.543625e+10
8.883289e+04, 4.482494e+10
8.892173e+04, 4.552377e+10
8.901065e+04, 4.715288e+10
8.909966e+04, 4.453924e+10
8.918876e+04, 4.269531e+10
8.927795e+04, 4.714421e+10
8.936722e+04, 4.653563e+10
8.945659e+04, 4.148488e+10
8.954605e+04, 4.468036e+10
8.963559e+04, 4.607359e+10
8.972523e+04, 4.156022e+10
8.981496e+04, 4.024640e+10
8.990477e+04, 4.673383e+10
8.999467e+04, 4.289055e+10
9.008467e+04, 4.703202e+10
9.017475e+04, 4.246932e+10
9.026493e+04, 4.307124e+10
9.035519e+04, 4.149110e+10
9.044555e+04, 4.458637e+10
9.053599e+04, 4.623918e+10
9.062653e+04, 3.937481e+10
9.071716e+04, 4.372271e+10
9.080787e+04, 4.555126e+10
9.089868e+04, 4.089476e+10
9.098958e+04, 4.467528e+10
9.108057e+04, 4.180788e+10
9.117165e+04, 4.334278e+10
9.126282e+04, 4.281826e+10
9.135409e+04, 4.188707e+10
9.144544e+04, 4.641300e+10
9.153688e+04, 4.018052e+10
9.162842e+04, 4.400467e+10
9.172005e+04, 4.022157e+10
9.181177e+04, 4.215732e+10
9.190358e+04, 4.422053e+10
9.199549e+04, 4.106575e+10
9.208748e+04, 4.252862e+10
9.217957e+04, 4.429850e+10
9.227175e+04, 4.199435e+10
9.236402e+04, 4.449558e+10
9.245638e+04, 3.975430e+10
9.254884e+04, 3.990375e+10
9.264139e+04, 4.181879e+10
9.273403e+04, 4.102946e+10
9.282676e+04, 3.989608e+10
9.291959e+04, 4.065752e+10
9.301251e+04, 4.100546e+10
9.310552e+04, 4.238486e+10
9.319863e+04, 4.062872e+10
9.329183e+04, 4.227072e+10
9.338512e+04, 3.961431e+10
9.347850e+04, 4.305782e+10
9.357198e+04, 4.253357e+10
9.366556e+04, 4.368326e+10
9.375922e+04, 3.885625e+10
9.385298e+04, 4.121106e+10
9.394683e+04, 4.077758e+10
9.404078e+04, 3.781431e+10
9.413482e+04, 3.935155e+10
9.422896e+04, 4.026545e+10
9.432318e+04, 4.164310e+10
9.441751e+04, 3.495761e+10
9.451192e+04, 4.225022e+10
9.460644e+04, 3.888407e+10
9.470104e+04, 4.206064e+10
9.479574e+04, 3.886885e+10
9.489054e+04, 4.139909e+10
9.498543e+04, 3.709786e+10
9.508042e+04, 4.083510e+10
9.517550e+04, 3.971373e+10
9.527067e+04, 3.941416e+10
9.536594e+04, 4.076244e+10
9.546131e+04, 4.252009e+10
9.555677e+04, 4.123274e+10
9.565233e+04, 4.032777e+10
9.574798e+04, 3.920712e+10
9.584373e+04, 3.816488e+10
9.593957e+04, 3.800900e+10
9.603551e+04, 3.629116e+10
9.613155e+04, 3.890487e+10
9.622768e+04, 3.731571e+10
9.632390e+04, 3.811134e+10
9.642023e+04, 3.707183e+10
9.651665e+04, 3.664886e+10
9.661317e+04, 3.709160e+10
9.670978e+04, 3.948979e+10
9.680649e+04, 3.642646e+10
9.690330e+04, 3.898482e+10
9.700020e+04, 3.759516e+10
9.709720e+04, 3.788210e+10
9.719430e+04, 3.819781e+10
9.729149e+04, 3.871835e+10
9.738878e+04, 3.840833e+10
9.748617e+04, 3.934957e+10
9.758366e+04, 3.731204e+10
9.768124e+04, 3.978370e+10
9.777892e+04, 3.616158e+10
9.787670e+04, 3.778818e+10
9.797458e+04, 4.003221e+10
9.807255e+04, 3.748992e+10
9.817062e+04, 3.562343e+10
9.826879e+04, 3.495145e+10
9.836706e+04, 3.774319e+10
9.846543e+04, 3.765546e+10
9.856390e+04, 3.345042e+10
9.866246e+04, 3.743243e+10
9.876112e+04, 4.033653e+10
9.885988e+04, 3.168573e+10
9.895874e+04, 2.924347e+10
9.905770e+04, 3.656055e+10
9.915676e+04, 3.432781e+10
9.925592e+04, 3.423183e+10
9.935517e+04, 3.674895e+10
9.945453e+04, 3.853618e+10
9.955398e+04, 3.533825e+10
9.965354e+04, 3.576197e+10
9.975319e+04, 3.681001e+10
9.985294e+04, 3.464871e+10
9.995280e+04, 3.444186e+10
1.000527e+05, 3.610899e+10
1.001528e+05, 3.435506e+10
1.002530e+05, 3.533993e+10
1.003532e+05, 3.582778e+10
1.004536e+05, 3.653006e+10
1.005540e+05, 3.377997e+10
1.006546e+05, 3.216349e+10
1.007552e+05, 3.292175e+10
1.008560e+05, 3.207502e+10
1.009568e+05, 3.283802e+10
1.010578e+05, 3.429434e+10
1.011588e+05, 3.278335e+10
1.012600e+05, 3.372006e+10
1.013613e+05, 3.497491e+10
1.014626e+05, 3.377420e+10
1.015641e+05, 3.606828e+10
1.016657e+05, 3.417550e+10
1.017673e+05, 3.230644e+10
1.018691e+05, 3.383227e+10
1.019710e+05, 3.608813e+10
1.020729e+05, 3.411650e+10
1.021750e+05, 3.033284e+10
1.022772e+05, 3.334222e+10
1.023795e+05, 3.255585e+10
1.024818e+05, 3.265204e+10
1.025843e+05, 3.397198e+10
1.026869e+05, 3.126217e+10
1.027896e+05, 2.890456e+10
1.028924e+05, 3.266135e+10
1.029953e+05, 3.246651e+10
1.030983e+05, 3.168279e+10
1.032014e+05, 3.129675e+10
1.033046e+05, 2.900262e+10
1.034079e+05, 3.100725e+10
1.035113e+05, 3.355700e+10
1.036148e+05, 2.894372e+10
1.037184e+05, 3.157791e+10
1.038221e+05, 3.097863e+10
1.039259e+05, 3.294635e+10
1.040299e+05, 2.849617e+10
1.041339e+05, 3.076768e+10
1.042380e+05, 2.761620e+10
1.043423e+05, 2.999544e+10
1.044466e+05, 3.154964e+10
1.045511e+05, 2.987640e+10
1.046556e+05, 2.962962e+10
1.047603e+05, 2.856646e+10
1.048650e+05, 2.860201e+10
1.049699e+05, 3.148770e+10
1.050749e+05, 2.813992e+10
1.051799e+05, 3.092254e+10
1.052851e+05, 3.013269e+10
1.053904e+05, 3.061166e+10
1.054958e+05, 2.942263e+10
1.056013e+05, 2.757028e+10
1.057069e+05, 2.695123e+10
1.058126e+05, 2.776218e+10
1.059184e+05, 2.727262e+10
1.060243e+05, 2.822437e+10
1.061303e+05, 2.530070e+10
1.062365e+05, 3.043697e+10
1.063427e+05, 2.658662e+10
1.064491e+05, 2.889304e+10
1.065555e+05, 2.839288e+10
1.066621e+05, 2.897458e+10
1.067687e+05, 2.831835e+10
1.068755e+05, 2.886199e+10
1.069824e+05, 2.932637e+10
1.070894e+05, 2.532085e+10
1.071964e+05, 2.835771e+10
1.073036e+05, 2.714435e+10
1.074109e+05, 2.705389e+10
1.075184e+05, 2.621745e+10
1.076259e+05, 2.547509e+10
1.077335e+05, 2.729243e+10
1.078412e+05, 2.590706e+10
1.079491e+05, 2.690173e+10
1.080570e+05, 2.952502e+10
1.081651e+05, 2.697742e+10
1.082732e+05, 2.593851e+10
1.083815e+05, 2.924643e+10
1.084899e+05, 2.674950e+10
1.085984e+05, 2.780822e+10
1.087070e+05, 2.600475e+10
1.088157e+05, 2.544723e+10
1.089245e+05, 2.387134e+10
1.090334e+05, 2.436674e+10
1.091425e+05, 2.614934e+10
1.092516e+05, 2.538200e+10
1.093609e+05, 2.344364e+10
1.094702e+05, 2.519049e+10
1.095797e+05, 2.728097e+10
1.096893e+05, 2.327373e+10
1.097990e+05, 2.346420e+10
1.099088e+05, 2.171932e+10
1.100187e+05, 2.526667e+10
1.101287e+05, 2.470144e+10
1.102388e+05, 2.418855e+10
1.103491e+05, 2.451337e+10
1.104594e+05, 2.221751e+10
1.105699e+05, 2.280205e+10
1.106804e+05, 2.402492e+10
1.107911e+05, 2.337990e+10
1.109019e+05, 2.436990e+10
1.110128e+05, 2.474200e+10
1.111238e+05, 2.279657e+10
1.112349e+05, 2.335877e+10
1.113462e+05, 2.298592e+10
1.114575e+05, 2.513180e+10
1.115690e+05, 2.344432e+10
1.116806e+05, 2.273401e+10
1.117922e+05, 2.158268e+10
1.119040e+05, 2.277391e+10
1.120159e+05, 2.114771e+10
1.121279e+05, 2.332844e+10
1.122401e+05, 2.225508e+10
1.123523e+05, 2.268742e+10
1.124647e+05, 2.393862e+10
1.125771e+05, 2.294114e+10
1.126897e+05, 2.207495e+10
1.128024e+05, 2.361478e+10
1.129152e+05, 2.228140e+10
1.130281e+05, 2.174433e+10
1.131411e+05, 2.009137e+10
1.132543e+05, 2.178887e+10
1.133675e+05, 2.201786e+10
1.134809e+05, 2.322989e+10
1.135944e+05, 2.149718e+10
1.137080e+05, 2.089569e+10
1.138217e+05, 2.115335e+10
1.139355e+05, 2.253741e+10
1.140494e+05, 2.208373e+10
1.141635e+05, 2.454567e+10
1.142777e+05, 2.150206e+10
1.143919e+05, 1.969125e+10
1.145063e+05, 1.946557e+10
1.146208e+05, 2.231688e+10
1.147355e+05, 2.061921e+10
1.148502e+05, 2.046907e+10
1.149650e+05, 2.136442e+10
1.150800e+05, 2.193679e+10
1.151951e+05, 2.019200e+10
1.153103e+05, 1.980540e+10
1.154256e+05, 2.002643e+10
1.155410e+05, 1.769432e+10
1.156566e+05, 1.939701e+10
1.157722e+05, 2.033484e+10
1.158880e+05, 2.070394e+10
1.160039e+05, 1.851832e+10
1.161199e+05, 2.019095e+10
1.162360e+05, 1.997883e+10
1.163522e+05, 1.886583e+10
1.164686e+05, 1.942479e+10
1.165851e+05, 2.060355e+10
1.167016e+05, 2.015263e+10
1.168183e+05, 1.920925e+10
1.169352e+05, 1.935630e+10
1.170521e+05, 2.018721e+10
1.171691e+05, 1.768860e+10
1.172863e+05, 1.768985e+10
1.174036e+05, 1.776308e+10
1.175210e+05, 1.764185e+10
1.176385e+05, 1.805327e+10
1.177562e+05, 1.813643e+10
1.178739e+05, 1.874148e+10
1.179918e+05, 1.759158e+10
1.181098e+05, 1.970907e+10
1.182279e+05, 1.842015e+10
1.183461e+05, 1.656256e+10
1.184645e+05, 2.020716e+10
1.185829e+05, 1.603605e+10
1.187015e+05, 1.863627e+10
1.188202e+05, 1.935404e+10
1.189390e+05, 1.829656e+10
1.190580e+05, 1.583806e+10
1.191770e+05, 1.835078e+10
1.192962e+05, 1.776696e+10
1.194155e+05, 1.863419e+10
1.195349e+05, 1.757033e+10
1.196545e+05, 1.591978e+10
1.197741e+05, 1.913439e+10
1.198939e+05, 1.808626e+10
1.200138e+05, 1.664317e+10
1.201338e+05, 1.746511e+10
1.202539e+05, 1.685621e+10
1.203742e+05, 1.824552e+10
1.204946e+05, 1.657138e+10
1.206151e+05, 1.680537e+10
1.207357e+05, 1.836273e+10
1.208564e+05, 1.610995e+10
1.209773e+05, 1.805985e+10
1.210982e+05, 1.768853e+10
1.212193e+05, 1.611918e+10
1.213406e+05, 1.781579e+10
1.214619e+05, 1.517256e+10
1.215834e+05, 1.519119e+10
1.217049e+05, 1.824785e+10
1.218266e+05, 1.748575e+10
1.219485e+05, 1.704466e+10
1.220704e+05, 1.648801e+10
1.221925e+05, 1.633414e+10
1.223147e+05, 1.755270e+10
1.224370e+05, 1.498095e+10
1.225594e+05, 1.637159e+10
1.226820e+05, 1.680155e+10
1.228047e+05, 1.522467e+10
1.229275e+05, 1.604460e+10
1.230504e+05, 1.664528e+10
1.231735e+05, 1.479598e+10
1.232966e+05, 1.576833e+10
1.234199e+05, 1.655182e+10
1.235433e+05, 1.564103e+10
1.236669e+05, 1.554819e+10
1.237906e+05, 1.555763e+10
1.239144e+05, 1.642891e+10
1.240383e+05, 1.428052e+10
1.241623e+05, 1.461203e+10
1.242865e+05, 1.378932e+10
1.244108e+05, 1.382685e+10
1.245352e+05, 1.436407e+10
1.246597e+05, 1.524271e+10
1.247844e+05, 1.496258e+10
1.249091e+05, 1.521141e+10
1.250341e+05, 1.517280e+10
1.251591e+05, 1.453969e+10
1.252842e+05, 1.375114e+10
1.254095e+05, 1.355158e+10
1.255349e+05, 1.451990e+10
1.256605e+05, 1.419995e+10
1.257861e+05, 1.469405e+10
1.259119e+05, 1.347447e+10
1.260378e+05, 1.386709e+10
1.261639e+05, 1.500440e+10
1.262900e+05, 1.414343e+10
1.264163e+05, 1.474759e+10
1.265427e+05, 1.350041e+10
1.266693e+05, 1.339218e+10
1.267960e+05, 1.320230e+10
1.269227e+05, 1.479578e+10
1.270497e+05, 1.437843e+10
1.271767e+05, 1.372847e+10
1.273039e+05, 1.367034e+10
1.274312e+05, 1.520448e+10
1.275586e+05, 1.294076e+10
1.276862e+05, 1.267545e+10
1.278139e+05, 1.344147e+10
1.279417e+05, 1.355515e+10
1.280696e+05, 1.241667e+10
1.281977e+05, 1.305143e+10
1.283259e+05, 1.414916e+10
1.284542e+05, 1.264300e+10
1.285827e+05, 1.344289e+10
1.287113e+05, 1.358881e+10
1.288400e+05, 1.460280e+10
1.289688e+05, 1.367473e+10
1.290978e+05, 1.353622e+10
1.292269e+05, 1.250102e+10
1.293561e+05, 1.233874e+10
1.294855e+05, 1.286814e+10
1.296149e+05, 1.297772e+10
1.297446e+05, 1.268161e+10
1.298743e+05, 1.243654e+10
1.300042e+05, 1.361785e+10
1.301342e+05, 1.318807e+10
1.302643e+05, 1.162518e+10
1.303946e+05, 1.234525e+10
1.305250e+05, 1.270352e+10
1.306555e+05, 1.411135e+10
1.307862e+05, 1.259234e+10
1.309169e+05, 1.225165e+10
1.310479e+05, 1.378159e+10
1.311789e+05, 1.284348e+10
1.313101e+05, 1.276237e+10
1.314414e+05, 1.176882e+10
1.315728e+05, 1.227614e+10
1.317044e+05, 1.258102e+10
1.318361e+05, 1.142460e+10
1.319680e+05, 1.328965e+10
1.320999e+05, 1.062848e+10
1.322320e+05, 1.152423e+10
1.323643e+05, 1.192234e+10
1.324966e+05, 1.206017e+10
1.326291e+05, 1.116482e+10
1.327617e+05, 1.206389e+10
1.328945e+05, 1.109408e+10
1.330274e+05, 1.181580e+10
1.331604e+05, 1.140058e+10
1.332936e+05, 1.164843e+10
1.334269e+05, 1.146165e+10
1.335603e+05, 1.150132e+10
1.336939e+05, 1.239833e+10
1.338276e+05, 1.178990e+10
1.339614e+05, 1.220563e+10
1.340954e+05, 1.225353e+10
1.342294e+05, 1.088259e+10
1.343637e+05, 1.171635e+10
1.344980e+05, 1.024693e+10
1.346325e+05, 1.109084e+10
1.347672e+05, 1.105936e+10
1.349019e+05, 1.031677e+10
1.350368e+05, 1.145510e+10
1.351719e+05, 1.161755e+10
1.353070e+05, 1.086214e+10
1.354424e+05, 1.061544e+10
1.355778e+05, 1.085110e+10
1.357134e+05, 1.012071e+10
1.358491e+05, 1.097703e+10
1.359849e+05, 1.100089e+10
1.361209e+05, 1.076882e+10
1.362570e+05, 1.054674e+10
1.363933e+05, 1.009072e+10
1.365297e+05, 1.029311e+10
1.366662e+05, 1.144220e+10
1.368029e+05, 1.118896e+10
1.369397e+05, 9.977733e+09
1.370766e+05, 9.812664e+09
1.372137e+05, 9.873838e+09
1.373509e+05, 1.103426e+10
1.374883e+05, 1.004553e+10
1.376258e+05, 9.187249e+09
1.377634e+05, 9.967367e+09
1.379012e+05, 1.061080e+10
1.380391e+05, 1.059154e+10
1.381771e+05, 1.036540e+10
1.383153e+05, 1.095821e+10
1.384536e+05, 9.565540e+09
1.385920e+05, 9.384510e+09
1.387306e+05, 1.080757e+10
1.388694e+05, 1.051992e+10
1.390082e+05, 1.024610e+10
1.391472e+05, 9.901351e+09
1.392864e+05, 1.037406e+10
1.394257e+05, 1.014055e+10
1.395651e+05, 9.491218e+09
1.397047e+05, 9.306789e+09
1.398444e+05, 1.024963e+10
1.399842e+05, 9.418308e+09
1.401242e+05, 8.777400e+09
1.402643e+05, 9.680819e+09
1.404046e+05, 9.936695e+09
1.405450e+05, 1.009395e+10
1.406855e+05, 9.052369e+09
1.408262e+05, 9.960351e+09
1.409670e+05, 1.055178e+10
1.411080e+05, 9.405146e+09
1.412491e+05, 8.801067e+09
1.413904e+05, 8.701602e+09
1.415318e+05, 8.903686e+09
1.416733e+05, 8.577878e+09
1.418150e+05, 8.990453e+09
1.419568e+05, 9.164946e+09
1.420987e+05, 8.230563e+09
1.422408e+05, 9.671585e+09
1.423831e+05, 9.226731e+09
1.425255e+05, 9.782996e+09
1.426680e+05, 9.410468e+09
1.428107e+05, 9.378510e+09
1.429535e+05, 9.343412e+09
1.430964e+05, 9.757768e+09
1.432395e+05, 7.902324e+09
1.433828e+05, 8.609090e+09
1.435261e+05, 8.910086e+09
1.436697e+05, 8.858429e+09
1.438133e+05, 9.039032e+09
1.439571e+05, 9.006315e+09
1.441011e+05, 8.646484e+09
1.442452e+05, 8.702223e+09
1.443894e+05, 9.048503e+09
1.445338e+05, 8.420893e+09
1.446784e+05, 8.275012e+09
1.448231e+05, 7.772832e+09
1.449679e+05, 7.781034e+09
1.451128e+05, 9.030625e+09
1.452580e+05, 8.190204e+09
1.454032e+05, 8.245105e+09
1.455486e+05, 8.305852e+09
1.456942e+05, 9.085224e+09
1.458399e+05, 8.185947e+09
1.459857e+05, 8.306366e+09
1.461317e+05, 8.761519e+09
1.462778e+05, 7.955356e+09
1.464241e+05, 7.626174e+09
1.465705e+05, 7.294330e+09
1.467171e+05, 7.502820e+09
1.468638e+05, 7.898396e+09
1.470107e+05, 7.987902e+09
1.471577e+05, 7.376185e+09
1.473048e+05, 8.358704e+09
1.474521e+05, 8.062630e+09
1.475996e+05, 8.726474e+09
1.477472e+05, 7.989891e+09
1.478949e+05, 8.061118e+09
1.480428e+05, 8.608875e+09
1.481909e+05, 7.988011e+09
1.483391e+05, 7.894419e+09
1.484874e+05, 7.748534e+09
1.486359e+05, 7.702815e+09
1.487845e+05, 7.814256e+09
1.489333e+05, 7.536391e+09
1.490823e+05, 7.678687e+09
1.492313e+05, 6.850881e+09
1.493806e+05, 8.099360e+09
1.495299e+05, 7.797658e+09
1.496795e+05, 7.232693e+09
1.498292e+05, 7.121050e+09
1.499790e+05, 8.061140e+09
1.501290e+05, 7.669612e+09
1.502791e+05, 8.127748e+09
1.504294e+05, 6.256833e+09
1.505798e+05, 7.705760e+09
1.507304e+05, 8.219228e+09
1.508811e+05, 7.565101e+09
1.510320e+05, 7.300314e+09
1.511830e+05, 7.213899e+09
1.513342e+05, 6.822325e+09
1.514855e+05, 7.525400e+09
1.516370e+05, 7.245268e+09
1.517887e+05, 6.520832e+09
1.519405e+05, 7.251264e+09
1.520924e+05, 7.734551e+09
1.522445e+05, 7.573060e+09
1.523967e+05, 7.371671e+09
1.525491e+05, 6.748592e+09
1.527017e+05, 7.346112e+09
1.528544e+05, 6.759837e+09
1.530072e+05, 7.059718e+09
1.531602e+05, 6.644369e+09
1.533134e+05, 6.648010e+09
1.534667e+05, 6.153214e+09
1.536202e+05, 6.787521e+09
1.537738e+05, 6.573486e+09
1.539276e+05, 6.313812e+09
1.540815e+05, 7.248858e+09
1.542356e+05, 6.540215e+09
1.543898e+05, 6.488126e+09
1.545442e+05, 6.396832e+09
1.546988e+05, 6.570303e+09
1.548534e+05, 6.433999e+09
1.550083e+05, 6.751487e+09
1.551633e+05, 6.490505e+09
1.553185e+05, 6.662591e+09
1.554738e+05, 6.898735e+09
1.556293e+05, 6.448196e+09
1.557849e+05, 6.677611e+09
1.559407e+05, 6.938779e+09
1.560966e+05, 6.750748e+09
1.562527e+05, 6.999467e+09
1.564090e+05, 6.317094e+09
1.565654e+05, 6.645458e+09
1.567219e+05, 6.143855e+09
1.568787e+05, 6.563327e+09
1.570355e+05, 6.569774e+09
1.571926e+05, 6.270400e+09
1.573498e+05, 6.571214e+09
1.575071e+05, 6.060437e+09
1.576646e+05, 6.073575e+09
1.578223e+05, 6.656856e+09
1.579801e+05, 6.254898e+09
1.581381e+05, 5.885371e+09
1.582962e+05, 6.198611e+09
1.584545e+05, 6.194458e+09
1.586130e+05, 5.720881e+09
1.587716e+05, 6.446362e+09
1.589304e+05, 5.957165e+09
1.590893e+05, 6.264133e+09
1.592484e+05, 5.903620e+09
1.594076e+05, 6.141720e+09
1.595670e+05, 5.893814e+09
1.597266e+05, 5.651850e+09
1.598863e+05, 5.445662e+09
1.600462e+05, 5.733437e+09
1.602063e+05, 5.945300e+09
1.603665e+05, 5.882469e+09
1.605268e+05, 5.737768e+09
1.606874e+05, 5.969699e+09
1.608481e+05, 5.581135e+09
1.610089e+05, 5.699089e+09
1.611699e+05, 5.300066e+09
1.613311e+05, 5.779507e+09
1.614924e+05, 5.883035e+09
1.616539e+05, 5.251248e+09
1.618156e+05, 5.897071e+09
1.619774e+05, 5.637933e+09
1.621394e+05, 5.258885e+09
1.623015e+05, 5.798738e+09
1.624638e+05, 5.805095e+09
1.626263e+05, 5.485893e+09
1.627889e+05, 5.035911e+09
1.629517e+05, 5.770794e+09
1.631146e+05, 5.666603e+09
1.632777e+05, 5.309884e+09
1.634410e+05, 5.859864e+09
1.636045e+05, 6.154220e+09
1.637681e+05, 5.479914e+09
1.639318e+05, 4.972400e+09
1.640958e+05, 5.588744e+09
1.642599e+05, 5.403848e+09
1.644241e+05, 5.684465e+09
1.645885e+05, 5.817799e+09
1.647531e+05, 4.990583e+09
1.649179e+05, 5.387883e+09
1.650828e+05, 5.648971e+09
1.652479e+05, 5.460011e+09
1.654131e+05, 5.279110e+09
1.655785e+05, 4.531658e+09
1.657441e+05, 5.108167e+09
1.659099e+05, 5.280127e+09
1.660758e+05, 4.901134e+09
1.662419e+05, 4.830265e+09
1.664081e+05, 4.902409e+09
1.665745e+05, 4.901527e+09
1.667411e+05, 5.220420e+09
1.669078e+05, 5.550849e+09
1.670747e+05, 5.009404e+09
1.672418e+05, 5.129815e+09
1.674090e+05, 5.113458e+09
1.675765e+05, 4.575455e+09
1.677440e+05, 5.410190e+09
1.679118e+05, 5.078534e+09
1.680797e+05, 5.108868e+09
1.682478e+05, 4.862003e+09
1.684160e+05, 4.532495e+09
1.685844e+05, 5.233105e+09
1.687530e+05, 4.556213e+09
1.689218e+05, 4.638886e+09
1.690907e+05, 4.946168e+09
1.692598e+05, 4.640452e+09
1.694290e+05, 5.117162e+09
1.695985e+05, 5.117284e+09
1.697681e+05, 4.943938e+09
1.699378e+05, 4.818916e+09
1.701078e+05, 5.034418e+09
1.702779e+05, 5.143726e+09
1.704482e+05, 5.150328e+09
1.706186e+05, 4.976943e+09
1.707892e+05, 4.555242e+09
1.709600e+05, 4.766919e+09
1.711310e+05, 4.750907e+09
1.713021e+05, 4.190749e+09
1.714734e+05, 4.504320e+09
1.716449e+05, 4.590231e+09
1.718165e+05, 4.531067e+09
1.719883e+05, 4.420411e+09
1.721603e+05, 4.500463e+09
1.723325e+05, 4.127930e+09
1.725048e+05, 4.288501e+09
1.726773e+05, 4.340778e+09
1.728500e+05, 4.364233e+09
1.730229e+05, 4.622477e+09
1.731959e+05, 4.538268e+09
1.733691e+05, 4.350515e+09
1.735424e+05, 4.279296e+09
1.737160e+05, 4.444045e+09
1.738897e+05, 4.769635e+09
1.740636e+05, 4.220153e+09
1.742377e+05, 4.951122e+09
1.744119e+05, 4.251052e+09
1.745863e+05, 4.162732e+09
1.747609e+05, 4.037702e+09
1.749357e+05, 4.415670e+09
1.751106e+05, 4.475283e+09
1.752857e+05, 3.907386e+09
1.754610e+05, 4.139753e+09
1.756364e+05, 4.385345e+09
1.758121e+05, 4.158331e+09
1.759879e+05, 4.102485e+09
1.761639e+05, 4.179188e+09
1.763400e+05, 3.645087e+09
1.765164e+05, 4.020760e+09
1.766929e+05, 4.084240e+09
1.768696e+05, 4.352817e+09
1.770465e+05, 4.060887e+09
1.772235e+05, 3.992149e+09
1.774007e+05, 4.256481e+09
1.775781e+05, 3.876607e+09
1.777557e+05, 3.966360e+09
1.779335e+05, 4.373635e+09
1.781114e+05, 4.293604e+09
1.782895e+05, 4.080079e+09
1.784678e+05, 4.066855e+09
1.786463e+05, 4.006007e+09
1.788249e+05, 4.251317e+09
1.790037e+05, 4.001038e+09
1.791827e+05, 3.956699e+09
1.793619e+05, 3.633923e+09
1.795413e+05, 3.793599e+09
1.797208e+05, 4.250884e+09
1.799006e+05, 4.571523e+09
1.800805e+05, 3.983920e+09
1.802605e+05, 3.494717e+09
1.804408e+05, 3.996458e+09
1.806212e+05, 3.777041e+09
1.808019e+05, 3.604960e+09
1.809827e+05, 3.773729e+09
1.811636e+05, 4.117456e+09
1.813448e+05, 3.758640e+09
1.815262e+05, 3.533831e+09
1.817077e+05, 3.421826e+09
1.818894e+05, 3.658971e+09
1.820713e+05, 4.024185e+09
1.822533e+05, 3.740964e+09
1.824356e+05, 3.776072e+09
1.826180e+05, 3.657304e+09
1.828007e+05, 3.744593e+09
1.829835e+05, 3.558115e+09
1.831664e+05, 3.666216e+09
1.833496e+05, 3.860474e+09
1.835330e+05, 3.751384e+09
1.837165e+05, 3.555808e+09
1.839002e+05, 3.414338e+09
1.840841e+05, 3.665761e+09
1.842682e+05, 3.423970e+09
1.844525e+05, 3.973038e+09
1.846369e+05, 3.757970e+09
1.848215e+05, 3.786524e+09
1.850064e+05, 3.650229e+09
1.851914e+05, 3.317711e+09
1.853766e+05, 3.461302e+09
1.855619e+05, 3.111405e+09
1.857475e+05, 3.563210e+09
1.859333e+05, 3.086308e+09
1.861192e+05, 3.429578e+09
1.863053e+05, 3.300869e+09
1.864916e+05, 3.328765e+09
1.866781e+05, 3.275047e+09
1.868648e+05, 3.669805e+09
1.870516e+05, 3.338401e+09
1.872387e+05, 3.104466e+09
1.874259e+05, 3.317544e+09
1.876134e+05, 3.119969e+09
1.878010e+05, 3.366203e+09
1.879888e+05, 3.646904e+09
1.881768e+05, 3.285930e+09
1.883649e+05, 3.360366e+09
1.885533e+05, 3.380592e+09
1.887419e+05, 3.342344e+09
1.889306e+05, 3.002138e+09
1.891195e+05, 3.371493e+09
1.893086e+05, 3.169795e+09
1.894980e+05, 3.172578e+09
1.896875e+05, 3.228993e+09
1.898771e+05, 3.286663e+09
1.900670e+05, 3.165383e+09
1.902571e+05, 3.406663e+09
1.904473e+05, 3.230162e+09
1.906378e+05, 3.280374e+09
1.908284e+05, 3.183706e+09
1.910193e+05, 3.519769e+09
1.912103e+05, 3.374635e+09
1.914015e+05, 3.190720e+09
1.915929e+05, 3.369679e+09
1.917845e+05, 2.863441e+09
1.919763e+05, 3.004384e+09
1.921682e+05, 2.763730e+09
1.923604e+05, 2.889597e+09
1.925528e+05, 3.017638e+09
1.927453e+05, 3.208189e+09
1.929381e+05, 2.866409e+09
1.931310e+05, 3.013791e+09
1.933241e+05, 2.946932e+09
1.935175e+05, 2.818644e+09
1.937110e+05, 3.045090e+09
1.939047e+05, 3.153091e+09
1.940986e+05, 2.978475e+09
1.942927e+05, 2.741346e+09
1.944870e+05, 2.959828e+09
1.946815e+05, 3.058905e+09
1.948762e+05, 3.040851e+09
1.950710e+05, 3.129249e+09
1.952661e+05, 2.830449e+09
1.954614e+05, 3.081413e+09
1.956568e+05, 2.707425e+09
1.958525e+05, 2.662801e+09
1.960483e+05, 3.063295e+09
1.962444e+05, 2.587186e+09
1.964406e+05, 2.696354e+09
1.966371e+05, 2.800495e+09
1.968337e+05, 2.933461e+09
1.970305e+05, 2.992694e+09
1.972276e+05, 2.967383e+09
1.974248e+05, 2.760523e+09
1.976222e+05, 2.931014e+09
1.978198e+05, 2.860369e+09
1.980177e+05, 2.685378e+09
1.982157e+05, 2.577172e+09
1.984139e+05, 2.566983e+09
1.986123e+05, 2.856368e+09
1.988109e+05, 2.748983e+09
1.990097e+05, 2.485818e+09
1.992087e+05, 2.875208e+09
1.994080e+05, 2.597299e+09
1.996074e+05, 2.697572e+09
1.998070e+05, 2.903515e+09