wavelength[Angstrom], flux[erg / (cm3 s)]
1.000000e+03, 4.726151e-03
1.001000e+03, 2.546537e-03
1.002001e+03, 9.565714e-04
1.003003e+03, 1.408867e-03
1.004006e+03, 1.587339e-03
1.005010e+03, 1.653822e-03
1.006015e+03, 7.250337e-04
1.007021e+03, 1.808112e-03
1.008028e+03, 1.245506e-03
1.009036e+03, 1.592277e-03
1.010045e+03, 1.569879e-03
1.011055e+03, 1.716199e-03
1.012066e+03, 1.907208e-03
1.013078e+03, 1.377214e-03
1.014091e+03, 1.100263e-03
1.015105e+03, 4.146386e-03
1.016121e+03, 3.173382e-03
1.017137e+03, 1.468607e-03
1.018154e+03, 1.571174e-03
1.019172e+03, 3.753195e-03
1.020191e+03, 4.207498e-03
1.021211e+03, 2.269064e-03
1.022233e+03, 1.433175e-03
1.023255e+03, 1.250034e-03
1.024278e+03, 6.123246e-04
1.025302e+03, 4.086612e-05
1.026328e+03, 8.363372e-05
1.027354e+03, 9.809030e-04
1.028381e+03, 1.517619e-03
1.029410e+03, 2.677830e-03
1.030439e+03, 4.525821e-03
1.031470e+03, 4.645474e-03
1.032501e+03, 1.692014e-02
1.033533e+03, 5.874219e-03
1.034567e+03, 1.117287e-02
1.035602e+03, 7.787394e-03
1.036637e+03, 7.774192e-03
1.037674e+03, 3.113402e-02
1.038712e+03, 1.418144e-02
1.039750e+03, 1.393394e-02
1.040790e+03, 1.364730e-02
1.041831e+03, 2.145003e-02
1.042873e+03, 2.769415e-02
1.043915e+03, 2.201550e-02
1.044959e+03, 3.266602e-02
1.046004e+03, 1.815517e-02
1.047050e+03, 1.360381e-02
1.048097e+03, 1.794935e-02
1.049145e+03, 2.760861e-02
1.050195e+03, 1.161146e-02
1.051245e+03, 1.616946e-02
1.052296e+03, 1.418703e-02
1.053348e+03, 2.272744e-02
1.054402e+03, 3.367007e-02
1.055456e+03, 2.863294e-02
1.056512e+03, 2.279785e-02
1.057568e+03, 2.291126e-02
1.058626e+03, 1.695778e-02
1.059684e+03, 5.114092e-02
1.060744e+03, 1.009490e-01
1.061805e+03, 2.544470e-02
1.062867e+03, 6.546519e-02
1.063929e+03, 1.074809e-01
1.064993e+03, 1.988828e-02
1.066058e+03, 6.077725e-02
1.067124e+03, 5.406461e-02
1.068191e+03, 7.584466e-02
1.069260e+03, 7.884284e-02
1.070329e+03, 5.481520e-02
1.071399e+03, 5.047502e-02
1.072471e+03, 5.527747e-02
1.073543e+03, 8.894811e-02
1.074617e+03, 8.427412e-02
1.075691e+03, 1.941761e-01
1.076767e+03, 8.996293e-02
1.077844e+03, 4.082697e-02
1.078922e+03, 7.525635e-02
1.080001e+03, 1.777158e-01
1.081081e+03, 1.041046e-01
1.082162e+03, 2.337586e-01
1.083244e+03, 2.393263e-01
1.084327e+03, 2.170718e-01
1.085411e+03, 8.647971e-02
1.086497e+03, 1.652224e-01
1.087583e+03, 1.770666e-01
1.088671e+03, 1.948001e-01
1.089759e+03, 1.661267e-01
1.090849e+03, 2.794123e-01
1.091940e+03, 3.436662e-01
1.093032e+03, 3.448448e-01
1.094125e+03, 6.215777e-02
1.095219e+03, 2.987674e-01
1.096314e+03, 3.450224e-01
1.097411e+03, 2.827411e-01
1.098508e+03, 3.310664e-01
1.099607e+03, 1.406268e-01
1.100706e+03, 1.542836e-01
1.101807e+03, 1.803306e-01
1.102909e+03, 9.777015e-01
1.104012e+03, 4.516673e-01
1.105116e+03, 5.435767e-01
1.106221e+03, 6.083945e-01
1.107327e+03, 8.094585e-01
1.108434e+03, 2.523386e-01
1.109543e+03, 4.353669e-01
1.110652e+03, 5.817488e-01
1.111763e+03, 9.400348e-01
1.112875e+03, 9.926536e-01
1.113988e+03, 3.770797e-01
1.115102e+03, 4.200007e-01
1.116217e+03, 2.874144e-01
1.117333e+03, 9.639682e-01
1.118450e+03, 8.246152e-01
1.119569e+03, 6.199660e-01
1.120688e+03, 5.570001e-01
1.121809e+03, 1.453687e+00
1.122931e+03, 1.517791e+00
1.124054e+03, 8.887002e-01
1.125178e+03, 7.781030e-01
1.126303e+03, 3.273105e+00
1.127429e+03, 1.903955e+00
1.128557e+03, 1.799725e+00
1.129685e+03, 1.454053e+00
1.130815e+03, 1.785064e+00
1.131946e+03, 1.675234e+00
1.133078e+03, 2.086097e+00
1.134211e+03, 1.318622e+00
1.135345e+03, 1.002732e+00
1.136480e+03, 1.936020e+00
1.137617e+03, 2.028247e+00
1.138754e+03, 1.901001e+00
1.139893e+03, 1.110290e+00
1.141033e+03, 2.398365e+00
1.142174e+03, 2.851257e+00
1.143316e+03, 1.748139e+00
1.144460e+03, 1.496523e+00
1.145604e+03, 1.896771e+00
1.146750e+03, 1.938105e+00
1.147896e+03, 2.434374e+00
1.149044e+03, 1.539045e+00
1.150193e+03, 1.853846e+00
1.151344e+03, 1.702617e+00
1.152495e+03, 2.372215e+00
1.153647e+03, 2.265619e+00
1.154801e+03, 1.871810e+00
1.155956e+03, 2.123913e+00
1.157112e+03, 3.086248e+00
1.158269e+03, 2.536984e+00
1.159427e+03, 1.429953e+00
1.160587e+03, 3.126431e+00
1.161747e+03, 9.354692e-01
1.162909e+03, 2.139820e+00
1.164072e+03, 1.694206e+00
1.165236e+03, 1.299522e+00
1.166401e+03, 7.216287e-01
1.167568e+03, 1.475279e+00
1.168735e+03, 2.469181e+00
1.169904e+03, 1.231877e+00
1.171074e+03, 1.501202e+00
1.172245e+03, 1.447591e+00
1.173417e+03, 2.320978e+00
1.174590e+03, 2.239108e+00
1.175765e+03, 1.566537e+00
1.176941e+03, 3.189648e+00
1.178118e+03, 3.697887e+00
1.179296e+03, 3.018797e+00
1.180475e+03, 2.490824e+00
1.181656e+03, 3.019887e+00
1.182837e+03, 2.793421e+00
1.184020e+03, 3.111454e+00
1.185204e+03, 2.363015e+00
1.186389e+03, 2.414510e+00
1.187576e+03, 3.102342e+00
1.188763e+03, 3.173504e+00
1.189952e+03, 3.498475e+00
1.191142e+03, 2.960089e+00
1.192333e+03, 2.296848e+00
1.193526e+03, 2.373261e+00
1.194719e+03, 6.083225e+00
1.195914e+03, 1.214181e+01
1.197110e+03, 2.826093e+01
1.198307e+03, 1.179566e+01
1.199505e+03, 1.599332e+01
1.200705e+03, 1.585332e+01
1.201905e+03, 1.070842e+01
1.203107e+03, 1.401963e+01
1.204310e+03, 1.017246e+01
1.205515e+03, 9.071775e+00
1.206720e+03, 9.642107e+00
1.207927e+03, 6.332999e+00
1.209135e+03, 5.081232e+00
1.210344e+03, 1.941367e+00
1.211554e+03, 1.693976e+00
1.212766e+03, 8.069474e-01
1.213979e+03, 2.658101e-01
1.215193e+03, 3.910960e-02
1.216408e+03, 6.370392e-02
1.217624e+03, 4.095150e-01
1.218842e+03, 1.108421e+00
1.220061e+03, 2.426370e+00
1.221281e+03, 4.985682e+00
1.222502e+03, 7.839180e+00
1.223724e+03, 1.327491e+01
1.224948e+03, 1.380518e+01
1.226173e+03, 2.918359e+01
1.227399e+03, 2.049420e+01
1.228627e+03, 3.363619e+01
1.229855e+03, 2.847073e+01
1.231085e+03, 5.222109e+01
1.232316e+03, 7.509519e+01
1.233549e+03, 6.718784e+01
1.234782e+03, 8.729571e+01
1.236017e+03, 6.493135e+01
1.237253e+03, 7.293060e+01
1.238490e+03, 1.064711e+02
1.239729e+03, 1.469809e+02
1.240968e+03, 9.195625e+01
1.242209e+03, 9.976496e+01
1.243452e+03, 1.386281e+02
1.244695e+03, 1.506815e+02
1.245940e+03, 9.496760e+01
1.247186e+03, 1.524344e+02
1.248433e+03, 1.884713e+02
1.249681e+03, 1.960590e+02
1.250931e+03, 1.646440e+02
1.252182e+03, 1.974702e+02
1.253434e+03, 1.971076e+02
1.254688e+03, 2.589820e+02
1.255942e+03, 1.561071e+02
1.257198e+03, 1.392183e+02
1.258455e+03, 1.389713e+02
1.259714e+03, 2.305920e+02
1.260974e+03, 1.871464e+02
1.262235e+03, 2.249611e+02
1.263497e+03, 2.079517e+02
1.264760e+03, 2.374078e+02
1.266025e+03, 2.369102e+02
1.267291e+03, 2.382910e+02
1.268558e+03, 1.845931e+02
1.269827e+03, 3.512318e+02
1.271097e+03, 2.569298e+02
1.272368e+03, 2.637144e+02
1.273640e+03, 3.814746e+02
1.274914e+03, 2.456968e+02
1.276189e+03, 2.701333e+02
1.277465e+03, 3.182631e+02
1.278742e+03, 2.739155e+02
1.280021e+03, 2.315036e+02
1.281301e+03, 4.252489e+02
1.282582e+03, 2.664665e+02
1.283865e+03, 4.496628e+02
1.285149e+03, 5.006812e+02
1.286434e+03, 2.804391e+02
1.287720e+03, 4.405555e+02
1.289008e+03, 5.420625e+02
1.290297e+03, 5.291019e+02
1.291588e+03, 6.117776e+02
1.292879e+03, 4.136417e+02
1.294172e+03, 6.782533e+02
1.295466e+03, 6.899182e+02
1.296762e+03, 7.329914e+02
1.298058e+03, 6.739659e+02
1.299356e+03, 6.969342e+02
1.300656e+03, 9.346247e+02
1.301956e+03, 9.831690e+02
1.303258e+03, 1.210097e+03
1.304562e+03, 9.610430e+02
1.305866e+03, 1.077827e+03
1.307172e+03, 1.139017e+03
1.308479e+03, 1.323209e+03
1.309788e+03, 1.309600e+03
1.311098e+03, 9.770089e+02
1.312409e+03, 8.272706e+02
1.313721e+03, 9.390979e+02
1.315035e+03, 7.458144e+02
1.316350e+03, 8.946009e+02
1.317666e+03, 1.091961e+03
1.318984e+03, 8.809496e+02
1.320303e+03, 9.922571e+02
1.321623e+03, 1.008845e+03
1.322945e+03, 8.068231e+02
1.324268e+03, 8.788092e+02
1.325592e+03, 9.946439e+02
1.326918e+03, 9.377139e+02
1.328244e+03, 1.120613e+03
1.329573e+03, 1.200718e+03
1.330902e+03, 1.580887e+03
1.332233e+03, 1.502996e+03
1.333565e+03, 1.457646e+03
1.334899e+03, 1.589405e+03
1.336234e+03, 1.528715e+03
1.337570e+03, 1.657071e+03
1.338908e+03, 1.660390e+03
1.340247e+03, 1.784629e+03
1.341587e+03, 2.036816e+03
1.342928e+03, 1.435264e+03
1.344271e+03, 2.096221e+03
1.345616e+03, 1.480362e+03
1.346961e+03, 1.614817e+03
1.348308e+03, 2.139669e+03
1.349656e+03, 1.856032e+03
1.351006e+03, 2.122305e+03
1.352357e+03, 2.703900e+03
1.353709e+03, 2.968640e+03
1.355063e+03, 3.184263e+03
1.356418e+03, 2.696118e+03
1.357775e+03, 3.039908e+03
1.359132e+03, 3.193771e+03
1.360492e+03, 2.989413e+03
1.361852e+03, 3.092478e+03
1.363214e+03, 2.759287e+03
1.364577e+03, 3.337406e+03
1.365942e+03, 2.535453e+03
1.367308e+03, 3.012973e+03
1.368675e+03, 2.570116e+03
1.370044e+03, 2.994570e+03
1.371414e+03, 2.722135e+03
1.372785e+03, 3.056909e+03
1.374158e+03, 2.767235e+03
1.375532e+03, 3.501974e+03
1.376908e+03, 3.137418e+03
1.378284e+03, 4.127024e+03
1.379663e+03, 3.923708e+03
1.381042e+03, 4.513967e+03
1.382423e+03, 4.878431e+03
1.383806e+03, 4.916200e+03
1.385190e+03, 5.179059e+03
1.386575e+03, 5.950837e+03
1.387961e+03, 6.373001e+03
1.389349e+03, 7.230960e+03
1.390739e+03, 7.094101e+03
1.392130e+03, 8.138371e+03
1.393522e+03, 8.176222e+03
1.394915e+03, 9.254407e+03
1.396310e+03, 9.998095e+03
1.397706e+03, 1.102066e+04
1.399104e+03, 1.156996e+04
1.400503e+03, 1.302156e+04
1.401904e+03, 1.414194e+04
1.403306e+03, 1.364078e+04
1.404709e+03, 1.526440e+04
1.406114e+03, 1.646745e+04
1.407520e+03, 1.920157e+04
1.408927e+03, 1.655352e+04
1.410336e+03, 1.629173e+04
1.411747e+03, 2.121291e+04
1.413158e+03, 1.737870e+04
1.414571e+03, 1.972496e+04
1.415986e+03, 1.871530e+04
1.417402e+03, 2.383620e+04
1.418819e+03, 2.142759e+04
1.420238e+03, 2.699319e+04
1.421658e+03, 2.432687e+04
1.423080e+03, 2.257560e+04
1.424503e+03, 2.310070e+04
1.425928e+03, 2.919680e+04
1.427354e+03, 2.545964e+04
1.428781e+03, 2.625422e+04
1.430210e+03, 2.852572e+04
1.431640e+03, 3.106168e+04
1.433072e+03, 2.730058e+04
1.434505e+03, 3.064466e+04
1.435939e+03, 3.275484e+04
1.437375e+03, 3.332091e+04
1.438813e+03, 3.693069e+04
1.440251e+03, 3.559635e+04
1.441692e+03, 3.633992e+04
1.443133e+03, 3.834682e+04
1.444576e+03, 4.115784e+04
1.446021e+03, 3.995374e+04
1.447467e+03, 3.618403e+04
1.448914e+03, 4.646875e+04
1.450363e+03, 4.905824e+04
1.451814e+03, 4.512092e+04
1.453266e+03, 4.857935e+04
1.454719e+03, 4.964825e+04
1.456174e+03, 5.209930e+04
1.457630e+03, 4.860342e+04
1.459087e+03, 5.031244e+04
1.460546e+03, 4.875680e+04
1.462007e+03, 5.806276e+04
1.463469e+03, 6.007218e+04
1.464932e+03, 5.968546e+04
1.466397e+03, 7.105853e+04
1.467864e+03, 6.721512e+04
1.469332e+03, 6.757740e+04
1.470801e+03, 7.567197e+04
1.472272e+03, 6.488424e+04
1.473744e+03, 6.413861e+04
1.475218e+03, 7.912913e+04
1.476693e+03, 8.102955e+04
1.478170e+03, 7.647459e+04
1.479648e+03, 8.007712e+04
1.481128e+03, 8.574875e+04
1.482609e+03, 9.039867e+04
1.484091e+03, 9.207767e+04
1.485575e+03, 1.021386e+05
1.487061e+03, 8.994083e+04
1.488548e+03, 9.363016e+04
1.490037e+03, 1.079076e+05
1.491527e+03, 1.040242e+05
1.493018e+03, 1.001842e+05
1.494511e+03, 1.009438e+05
1.496006e+03, 1.230321e+05
1.497502e+03, 1.195742e+05
1.498999e+03, 1.275719e+05
1.500498e+03, 1.335754e+05
1.501999e+03, 1.319623e+05
1.503501e+03, 1.355342e+05
1.505004e+03, 1.376865e+05
1.506509e+03, 1.554329e+05
1.508016e+03, 1.555279e+05
1.509524e+03, 1.593710e+05
1.511033e+03, 1.610128e+05
1.512544e+03, 1.594635e+05
1.514057e+03, 1.563358e+05
1.515571e+03, 1.521524e+05
1.517086e+03, 1.507717e+05
1.518603e+03, 1.512827e+05
1.520122e+03, 1.552942e+05
1.521642e+03, 2.485542e+05
1.523164e+03, 2.665778e+05
1.524687e+03, 2.558796e+05
1.526212e+03, 2.572196e+05
1.527738e+03, 2.660982e+05
1.529266e+03, 2.376970e+05
1.530795e+03, 2.524881e+05
1.532326e+03, 2.114382e+05
1.533858e+03, 2.033609e+05
1.535392e+03, 2.010699e+05
1.536927e+03, 2.092188e+05
1.538464e+03, 2.112722e+05
1.540003e+03, 2.011240e+05
1.541543e+03, 1.849097e+05
1.543084e+03, 2.408000e+05
1.544627e+03, 2.006836e+05
1.546172e+03, 1.944551e+05
1.547718e+03, 2.046689e+05
1.549266e+03, 1.774190e+05
1.550815e+03, 1.738057e+05
1.552366e+03, 1.609623e+05
1.553918e+03, 2.100210e+05
1.555472e+03, 1.982746e+05
1.557028e+03, 2.765168e+05
1.558585e+03, 2.815471e+05
1.560143e+03, 3.157564e+05
1.561703e+03, 3.465690e+05
1.563265e+03, 3.557776e+05
1.564828e+03, 4.154606e+05
1.566393e+03, 4.583297e+05
1.567960e+03, 4.341930e+05
1.569528e+03, 4.950926e+05
1.571097e+03, 5.158442e+05
1.572668e+03, 5.371947e+05
1.574241e+03, 5.006726e+05
1.575815e+03, 5.438924e+05
1.577391e+03, 5.878952e+05
1.578968e+03, 6.165959e+05
1.580547e+03, 4.819861e+05
1.582128e+03, 4.170788e+05
1.583710e+03, 5.262496e+05
1.585294e+03, 5.114644e+05
1.586879e+03, 4.981258e+05
1.588466e+03, 5.657929e+05
1.590054e+03, 5.404184e+05
1.591644e+03, 5.584570e+05
1.593236e+03, 4.202212e+05
1.594829e+03, 4.435271e+05
1.596424e+03, 4.830138e+05
1.598020e+03, 4.865832e+05
1.599618e+03, 4.855082e+05
1.601218e+03, 4.763702e+05
1.602819e+03, 4.786398e+05
1.604422e+03, 4.230661e+05
1.606027e+03, 4.216576e+05
1.607633e+03, 5.128417e+05
1.609240e+03, 3.799748e+05
1.610849e+03, 4.777031e+05
1.612460e+03, 3.869483e+05
1.614073e+03, 4.595167e+05
1.615687e+03, 5.011195e+05
1.617303e+03, 4.240802e+05
1.618920e+03, 5.603287e+05
1.620539e+03, 3.978913e+05
1.622159e+03, 4.271545e+05
1.623781e+03, 5.883866e+05
1.625405e+03, 5.561299e+05
1.627031e+03, 5.977693e+05
1.628658e+03, 7.225357e+05
1.630286e+03, 8.683574e+05
1.631917e+03, 8.852253e+05
1.633549e+03, 8.027951e+05
1.635182e+03, 6.630772e+05
1.636817e+03, 1.121820e+06
1.638454e+03, 8.124146e+05
1.640093e+03, 5.901889e+05
1.641733e+03, 9.170366e+05
1.643374e+03, 1.122982e+06
1.645018e+03, 1.187993e+06
1.646663e+03, 1.142177e+06
1.648309e+03, 1.377893e+06
1.649958e+03, 1.200917e+06
1.651608e+03, 9.253589e+05
1.653259e+03, 1.415122e+06
1.654913e+03, 1.286651e+06
1.656567e+03, 1.080032e+06
1.658224e+03, 1.320948e+06
1.659882e+03, 1.136792e+06
1.661542e+03, 1.588758e+06
1.663204e+03, 1.523373e+06
1.664867e+03, 1.885962e+06
1.666532e+03, 1.476312e+06
1.668198e+03, 1.233662e+06
1.669866e+03, 9.389564e+05
1.671536e+03, 1.303095e+06
1.673208e+03, 1.509871e+06
1.674881e+03, 1.784462e+06
1.676556e+03, 1.882269e+06
1.678233e+03, 1.919814e+06
1.679911e+03, 2.043997e+06
1.681591e+03, 1.591622e+06
1.683272e+03, 2.002306e+06
1.684956e+03, 2.541489e+06
1.686640e+03, 2.213273e+06
1.688327e+03, 2.282354e+06
1.690015e+03, 2.200173e+06
1.691705e+03, 2.971093e+06
1.693397e+03, 2.125514e+06
1.695091e+03, 3.052576e+06
1.696786e+03, 4.022942e+06
1.698482e+03, 2.287949e+06
1.700181e+03, 2.267041e+06
1.701881e+03, 2.467186e+06
1.703583e+03, 2.184555e+06
1.705287e+03, 2.932365e+06
1.706992e+03, 3.799369e+06
1.708699e+03, 3.121985e+06
1.710408e+03, 3.955486e+06
1.712118e+03, 4.300999e+06
1.713830e+03, 4.287118e+06
1.715544e+03, 3.865411e+06
1.717259e+03, 2.281961e+06
1.718977e+03, 3.350704e+06
1.720696e+03, 3.351805e+06
1.722416e+03, 3.814603e+06
1.724139e+03, 4.254290e+06
1.725863e+03, 4.792661e+06
1.727589e+03, 6.075648e+06
1.729316e+03, 6.141630e+06
1.731046e+03, 5.786869e+06
1.732777e+03, 6.900538e+06
1.734510e+03, 3.676640e+06
1.736244e+03, 4.765171e+06
1.737980e+03, 4.400941e+06
1.739718e+03, 4.222060e+06
1.741458e+03, 4.635043e+06
1.743199e+03, 5.379060e+06
1.744943e+03, 7.244612e+06
1.746688e+03, 7.134547e+06
1.748434e+03, 6.752239e+06
1.750183e+03, 6.418416e+06
1.751933e+03, 6.153544e+06
1.753685e+03, 4.527941e+06
1.755439e+03, 7.229137e+06
1.757194e+03, 6.720396e+06
1.758951e+03, 6.584666e+06
1.760710e+03, 6.782469e+06
1.762471e+03, 6.478111e+06
1.764233e+03, 7.300880e+06
1.765998e+03, 7.363386e+06
1.767764e+03, 1.170726e+07
1.769531e+03, 9.463639e+06
1.771301e+03, 6.804964e+06
1.773072e+03, 5.561924e+06
1.774845e+03, 7.587588e+06
1.776620e+03, 8.053906e+06
1.778397e+03, 9.148630e+06
1.780175e+03, 9.548243e+06
1.781955e+03, 1.239056e+07
1.783737e+03, 1.284747e+07
1.785521e+03, 1.291034e+07
1.787306e+03, 1.549385e+07
1.789094e+03, 1.216966e+07
1.790883e+03, 1.061246e+07
1.792674e+03, 8.388339e+06
1.794466e+03, 1.155275e+07
1.796261e+03, 1.429683e+07
1.798057e+03, 1.261421e+07
1.799855e+03, 1.309732e+07
1.801655e+03, 1.577449e+07
1.803457e+03, 1.762313e+07
1.805260e+03, 1.608513e+07
1.807065e+03, 1.536461e+07
1.808872e+03, 1.980696e+07
1.810681e+03, 1.596580e+07
1.812492e+03, 9.196616e+06
1.814304e+03, 1.168323e+07
1.816119e+03, 1.440343e+07
1.817935e+03, 1.728816e+07
1.819753e+03, 1.313413e+07
1.821573e+03, 1.520342e+07
1.823394e+03, 2.201148e+07
1.825218e+03, 2.044912e+07
1.827043e+03, 1.934623e+07
1.828870e+03, 2.202318e+07
1.830699e+03, 2.271872e+07
1.832529e+03, 1.438552e+07
1.834362e+03, 1.335579e+07
1.836196e+03, 1.564628e+07
1.838032e+03, 1.979406e+07
1.839871e+03, 1.756889e+07
1.841710e+03, 1.959241e+07
1.843552e+03, 2.566524e+07
1.845396e+03, 2.589201e+07
1.847241e+03, 2.892259e+07
1.849088e+03, 3.017859e+07
1.850937e+03, 2.361567e+07
1.852788e+03, 2.099020e+07
1.854641e+03, 1.532841e+07
1.856496e+03, 1.643621e+07
1.858352e+03, 2.166660e+07
1.860211e+03, 2.603353e+07
1.862071e+03, 2.769604e+07
1.863933e+03, 2.526342e+07
1.865797e+03, 2.912501e+07
1.867663e+03, 3.716264e+07
1.869530e+03, 3.573522e+07
1.871400e+03, 3.405723e+07
1.873271e+03, 2.807502e+07
1.875144e+03, 2.618245e+07
1.877020e+03, 2.885611e+07
1.878897e+03, 2.722460e+07
1.880776e+03, 2.827842e+07
1.882656e+03, 3.301491e+07
1.884539e+03, 3.926798e+07
1.886424e+03, 3.717705e+07
1.888310e+03, 3.971623e+07
1.890198e+03, 4.307860e+07
1.892088e+03, 5.303684e+07
1.893981e+03, 4.963202e+07
1.895875e+03, 4.381234e+07
1.897770e+03, 4.150502e+07
1.899668e+03, 3.323094e+07
1.901568e+03, 3.991597e+07
1.903469e+03, 5.393119e+07
1.905373e+03, 4.923929e+07
1.907278e+03, 5.254825e+07
1.909186e+03, 5.829462e+07
1.911095e+03, 6.337230e+07
1.913006e+03, 6.510983e+07
1.914919e+03, 6.419207e+07
1.916834e+03, 7.188662e+07
1.918751e+03, 5.866442e+07
1.920669e+03, 5.864185e+07
1.922590e+03, 5.587959e+07
1.924513e+03, 5.914099e+07
1.926437e+03, 6.837141e+07
1.928364e+03, 6.299845e+07
1.930292e+03, 7.508404e+07
1.932222e+03, 8.402253e+07
1.934154e+03, 7.634101e+07
1.936089e+03, 6.910356e+07
1.938025e+03, 8.031316e+07
1.939963e+03, 7.522355e+07
1.941903e+03, 9.720194e+07
1.943845e+03, 7.280411e+07
1.945788e+03, 6.592653e+07
1.947734e+03, 8.552042e+07
1.949682e+03, 7.794499e+07
1.951632e+03, 7.981072e+07
1.953583e+03, 1.101168e+08
1.955537e+03, 9.578490e+07
1.957492e+03, 1.086460e+08
1.959450e+03, 9.470814e+07
1.961409e+03, 9.836163e+07
1.963371e+03, 1.069860e+08
1.965334e+03, 1.111999e+08
1.967299e+03, 1.099724e+08
1.969267e+03, 9.995479e+07
1.971236e+03, 1.257135e+08
1.973207e+03, 1.104475e+08
1.975180e+03, 1.279976e+08
1.977156e+03, 1.257562e+08
1.979133e+03, 1.341459e+08
1.981112e+03, 1.400159e+08
1.983093e+03, 1.493413e+08
1.985076e+03, 1.626393e+08
1.987061e+03, 1.517131e+08
1.989048e+03, 1.489428e+08
1.991037e+03, 1.253653e+08
1.993028e+03, 1.419997e+08
1.995021e+03, 1.286388e+08
1.997016e+03, 1.366062e+08
1.999013e+03, 1.459620e+08
2.001012e+03, 1.454903e+08
2.003013e+03, 1.660357e+08
2.005016e+03, 1.594099e+08
2.007021e+03, 1.520860e+08
2.009028e+03, 1.773161e+08
2.011037e+03, 1.876073e+08
2.013048e+03, 2.052431e+08
2.015062e+03, 1.976390e+08
2.017077e+03, 1.751314e+08
2.019094e+03, 1.871780e+08
2.021113e+03, 1.837339e+08
2.023134e+03, 1.834395e+08
2.025157e+03, 2.014732e+08
2.027182e+03, 1.826936e+08
2.029209e+03, 2.241596e+08
2.031239e+03, 2.197575e+08
2.033270e+03, 2.329484e+08
2.035303e+03, 2.086595e+08
2.037338e+03, 2.294899e+08
2.039376e+03, 2.378281e+08
2.041415e+03, 2.291632e+08
2.043457e+03, 2.330761e+08
2.045500e+03, 2.267288e+08
2.047545e+03, 2.259563e+08
2.049593e+03, 2.514262e+08
2.051643e+03, 2.494289e+08
2.053694e+03, 2.561549e+08
2.055748e+03, 2.456211e+08
2.057804e+03, 2.887739e+08
2.059861e+03, 2.573738e+08
2.061921e+03, 2.598257e+08
2.063983e+03, 2.602799e+08
2.066047e+03, 2.364042e+08
2.068113e+03, 2.955107e+08
2.070181e+03, 2.562432e+08
2.072252e+03, 4.918621e+08
2.074324e+03, 4.422941e+08
2.076398e+03, 4.310287e+08
2.078475e+03, 3.474875e+08
2.080553e+03, 5.573460e+08
2.082634e+03, 5.689280e+08
2.084716e+03, 5.320076e+08
2.086801e+03, 5.494933e+08
2.088888e+03, 6.967512e+08
2.090977e+03, 7.919314e+08
2.093068e+03, 7.440820e+08
2.095161e+03, 4.817373e+08
2.097256e+03, 6.879351e+08
2.099353e+03, 7.448757e+08
2.101452e+03, 6.813845e+08
2.103554e+03, 7.003061e+08
2.105657e+03, 6.427655e+08
2.107763e+03, 6.859885e+08
2.109871e+03, 6.666114e+08
2.111981e+03, 8.487823e+08
2.114093e+03, 7.402278e+08
2.116207e+03, 6.203660e+08
2.118323e+03, 6.793104e+08
2.120441e+03, 8.415221e+08
2.122562e+03, 1.017934e+09
2.124684e+03, 7.863141e+08
2.126809e+03, 7.128444e+08
2.128936e+03, 7.286877e+08
2.131065e+03, 8.997471e+08
2.133196e+03, 8.746228e+08
2.135329e+03, 8.813341e+08
2.137464e+03, 9.278884e+08
2.139602e+03, 8.937098e+08
2.141741e+03, 6.067659e+08
2.143883e+03, 9.484582e+08
2.146027e+03, 1.046979e+09
2.148173e+03, 5.771904e+08
2.150321e+03, 6.923681e+08
2.152472e+03, 9.026156e+08
2.154624e+03, 1.013426e+09
2.156779e+03, 1.089297e+09
2.158935e+03, 9.646591e+08
2.161094e+03, 9.280847e+08
2.163255e+03, 8.099054e+08
2.165419e+03, 8.848931e+08
2.167584e+03, 8.999066e+08
2.169752e+03, 8.023015e+08
2.171921e+03, 1.078253e+09
2.174093e+03, 1.136825e+09
2.176268e+03, 1.593419e+09
2.178444e+03, 6.008460e+08
2.180622e+03, 9.306306e+08
2.182803e+03, 8.910285e+08
2.184986e+03, 9.733782e+08
2.187171e+03, 1.118508e+09
2.189358e+03, 1.383800e+09
2.191547e+03, 1.402060e+09
2.193739e+03, 1.401115e+09
2.195932e+03, 1.620615e+09
2.198128e+03, 1.476741e+09
2.200327e+03, 9.287404e+08
2.202527e+03, 1.549770e+09
2.204729e+03, 1.192245e+09
2.206934e+03, 1.876856e+09
2.209141e+03, 1.552099e+09
2.211350e+03, 1.482482e+09
2.213562e+03, 2.035362e+09
2.215775e+03, 1.472169e+09
2.217991e+03, 1.280089e+09
2.220209e+03, 1.010987e+09
2.222429e+03, 1.175881e+09
2.224651e+03, 1.772407e+09
2.226876e+03, 1.325761e+09
2.229103e+03, 2.228261e+09
2.231332e+03, 1.775183e+09
2.233563e+03, 2.619330e+09
2.235797e+03, 3.192675e+09
2.238033e+03, 1.483330e+09
2.240271e+03, 2.103330e+09
2.242511e+03, 2.230859e+09
2.244754e+03, 2.489416e+09
2.246998e+03, 2.878116e+09
2.249245e+03, 2.798513e+09
2.251495e+03, 3.513870e+09
2.253746e+03, 3.668863e+09
2.256000e+03, 3.047805e+09
2.258256e+03, 1.387688e+09
2.260514e+03, 1.111031e+09
2.262775e+03, 1.640467e+09
2.265037e+03, 1.860454e+09
2.267302e+03, 2.185462e+09
2.269570e+03, 2.227496e+09
2.271839e+03, 2.696820e+09
2.274111e+03, 3.897789e+09
2.276385e+03, 3.111315e+09
2.278662e+03, 3.294462e+09
2.280940e+03, 3.003609e+09
2.283221e+03, 3.178896e+09
2.285504e+03, 3.264372e+09
2.287790e+03, 3.080452e+09
2.290078e+03, 3.469261e+09
2.292368e+03, 4.512717e+09
2.294660e+03, 4.285239e+09
2.296955e+03, 5.065750e+09
2.299252e+03, 3.527247e+09
2.301551e+03, 1.581727e+09
2.303853e+03, 2.120039e+09
2.306156e+03, 2.658542e+09
2.308463e+03, 3.656418e+09
2.310771e+03, 3.090736e+09
2.313082e+03, 4.296348e+09
2.315395e+03, 5.752423e+09
2.317710e+03, 6.916369e+09
2.320028e+03, 5.117578e+09
2.322348e+03, 3.874442e+09
2.324670e+03, 4.532538e+09
2.326995e+03, 4.399969e+09
2.329322e+03, 5.004980e+09
2.331651e+03, 6.764560e+09
2.333983e+03, 6.719545e+09
2.336317e+03, 6.219812e+09
2.338653e+03, 6.642482e+09
2.340992e+03, 8.239405e+09
2.343333e+03, 5.461381e+09
2.345676e+03, 2.735638e+09
2.348022e+03, 2.703023e+09
2.350370e+03, 3.790995e+09
2.352720e+03, 3.683845e+09
2.355073e+03, 3.982777e+09
2.357428e+03, 5.046982e+09
2.359786e+03, 6.226660e+09
2.362145e+03, 6.193456e+09
2.364508e+03, 7.434910e+09
2.366872e+03, 2.893228e+09
2.369239e+03, 4.373859e+09
2.371608e+03, 5.330808e+09
2.373980e+03, 4.457413e+09
2.376354e+03, 6.539401e+09
2.378730e+03, 7.204349e+09
2.381109e+03, 9.026503e+09
2.383490e+03, 8.737409e+09
2.385873e+03, 7.719601e+09
2.388259e+03, 7.674194e+09
2.390648e+03, 6.828620e+09
2.393038e+03, 6.582374e+09
2.395431e+03, 8.305373e+09
2.397827e+03, 9.849137e+09
2.400225e+03, 1.049992e+10
2.402625e+03, 1.257988e+10
2.405027e+03, 1.492607e+10
2.407432e+03, 1.347161e+10
2.409840e+03, 1.501330e+10
2.412250e+03, 1.130962e+10
2.414662e+03, 5.679360e+09
2.417077e+03, 7.300501e+09
2.419494e+03, 7.410172e+09
2.421913e+03, 8.552276e+09
2.424335e+03, 9.592927e+09
2.426759e+03, 1.177229e+10
2.429186e+03, 1.876787e+10
2.431615e+03, 1.722059e+10
2.434047e+03, 1.279372e+10
2.436481e+03, 1.352776e+10
2.438918e+03, 1.534418e+10
2.441356e+03, 1.555071e+10
2.443798e+03, 1.572890e+10
2.446242e+03, 1.816449e+10
2.448688e+03, 2.324858e+10
2.451137e+03, 2.118768e+10
2.453588e+03, 2.260127e+10
2.456041e+03, 2.749550e+10
2.458497e+03, 1.643596e+10
2.460956e+03, 1.187182e+10
2.463417e+03, 1.112559e+10
2.465880e+03, 1.643889e+10
2.468346e+03, 2.174053e+10
2.470814e+03, 1.963585e+10
2.473285e+03, 1.712347e+10
2.475758e+03, 2.680054e+10
2.478234e+03, 2.703200e+10
2.480712e+03, 1.940514e+10
2.483193e+03, 1.155504e+10
2.485676e+03, 1.329094e+10
2.488162e+03, 7.102075e+09
2.490650e+03, 7.587538e+09
2.493141e+03, 1.339834e+10
2.495634e+03, 1.613689e+10
2.498130e+03, 1.978618e+10
2.500628e+03, 1.917922e+10
2.503128e+03, 2.319501e+10
2.505632e+03, 2.381592e+10
2.508137e+03, 2.102545e+10
2.510645e+03, 1.372430e+10
2.513156e+03, 1.900466e+10
2.515669e+03, 1.747986e+10
2.518185e+03, 1.853492e+10
2.520703e+03, 2.186836e+10
2.523224e+03, 1.676658e+10
2.525747e+03, 2.701134e+10
2.528273e+03, 2.068515e+10
2.530801e+03, 2.391976e+10
2.533332e+03, 3.728972e+10
2.535865e+03, 3.618596e+10
2.538401e+03, 4.730596e+10
2.540939e+03, 3.864301e+10
2.543480e+03, 4.328333e+10
2.546024e+03, 3.483794e+10
2.548570e+03, 5.630297e+10
2.551118e+03, 4.521944e+10
2.553669e+03, 6.253224e+10
2.556223e+03, 4.962429e+10
2.558779e+03, 4.100632e+10
2.561338e+03, 4.353524e+10
2.563899e+03, 2.963590e+10
2.566463e+03, 2.544238e+10
2.569030e+03, 3.449570e+10
2.571599e+03, 4.283396e+10
2.574170e+03, 4.514683e+10
2.576745e+03, 3.861509e+10
2.579321e+03, 4.503561e+10
2.581901e+03, 4.199104e+10
2.584483e+03, 4.198729e+10
2.587067e+03, 3.776079e+10
2.589654e+03, 2.856583e+10
2.592244e+03, 3.774289e+10
2.594836e+03, 4.204380e+10
2.597431e+03, 5.866367e+10
2.600028e+03, 4.664793e+10
2.602628e+03, 6.016529e+10
2.605231e+03, 6.876728e+10
2.607836e+03, 5.317811e+10
2.610444e+03, 6.141156e+10
2.613054e+03, 4.863416e+10
2.615667e+03, 5.610320e+10
2.618283e+03, 6.071979e+10
2.620901e+03, 6.869880e+10
2.623522e+03, 6.959900e+10
2.626146e+03, 8.793601e+10
2.628772e+03, 8.082260e+10
2.631401e+03, 9.425687e+10
2.634032e+03, 1.037904e+11
2.636666e+03, 1.152389e+11
2.639303e+03, 1.513680e+11
2.641942e+03, 1.134433e+11
2.644584e+03, 9.489612e+10
2.647229e+03, 6.949524e+10
2.649876e+03, 9.669292e+10
2.652526e+03, 9.167712e+10
2.655178e+03, 1.364674e+11
2.657834e+03, 1.325323e+11
2.660491e+03, 1.087207e+11
2.663152e+03, 1.257566e+11
2.665815e+03, 1.016588e+11
2.668481e+03, 9.845205e+10
2.671149e+03, 7.203769e+10
2.673820e+03, 1.056491e+11
2.676494e+03, 1.275518e+11
2.679171e+03, 1.088258e+11
2.681850e+03, 1.116591e+11
2.684532e+03, 1.351083e+11
2.687216e+03, 1.406978e+11
2.689904e+03, 1.053009e+11
2.692593e+03, 1.002347e+11
2.695286e+03, 8.829484e+10
2.697981e+03, 9.706277e+10
2.700679e+03, 1.279990e+11
2.703380e+03, 1.306428e+11
2.706083e+03, 1.693181e+11
2.708789e+03, 1.532140e+11
2.711498e+03, 1.559806e+11
2.714210e+03, 1.388747e+11
2.716924e+03, 1.279364e+11
2.719641e+03, 7.291249e+10
2.722360e+03, 8.740651e+10
2.725083e+03, 1.046624e+11
2.727808e+03, 1.367984e+11
2.730536e+03, 1.388633e+11
2.733266e+03, 1.231136e+11
2.736000e+03, 1.137048e+11
2.738736e+03, 1.255179e+11
2.741474e+03, 1.543211e+11
2.744216e+03, 1.009781e+11
2.746960e+03, 1.770866e+11
2.749707e+03, 1.427967e+11
2.752457e+03, 1.756044e+11
2.755209e+03, 1.583789e+11
2.757964e+03, 1.333279e+11
2.760722e+03, 1.975141e+11
2.763483e+03, 1.835025e+11
2.766246e+03, 2.723156e+11
2.769013e+03, 2.010704e+11
2.771782e+03, 2.346817e+11
2.774554e+03, 2.592343e+11
2.777328e+03, 2.657670e+11
2.780105e+03, 1.655394e+11
2.782886e+03, 1.665270e+11
2.785668e+03, 2.413787e+11
2.788454e+03, 1.969819e+11
2.791243e+03, 2.785954e+11
2.794034e+03, 2.817217e+11
2.796828e+03, 1.895232e+11
2.799625e+03, 2.079489e+11
2.802424e+03, 1.993034e+11
2.805227e+03, 2.845416e+11
2.808032e+03, 2.139712e+11
2.810840e+03, 2.966105e+11
2.813651e+03, 2.818562e+11
2.816464e+03, 3.682614e+11
2.819281e+03, 3.385177e+11
2.822100e+03, 2.668074e+11
2.824922e+03, 2.998171e+11
2.827747e+03, 2.577279e+11
2.830575e+03, 3.076258e+11
2.833406e+03, 2.486823e+11
2.836239e+03, 2.435819e+11
2.839075e+03, 2.593640e+11
2.841914e+03, 2.546405e+11
2.844756e+03, 2.094867e+11
2.847601e+03, 1.751001e+11
2.850448e+03, 1.201786e+11
2.853299e+03, 4.579440e+10
2.856152e+03, 1.558011e+11
2.859008e+03, 2.132152e+11
2.861867e+03, 2.614627e+11
2.864729e+03, 2.745826e+11
2.867594e+03, 3.100592e+11
2.870462e+03, 3.451570e+11
2.873332e+03, 3.119532e+11
2.876205e+03, 3.173808e+11
2.879082e+03, 3.700010e+11
2.881961e+03, 3.374865e+11
2.884843e+03, 5.089047e+11
2.887727e+03, 5.708212e+11
2.890615e+03, 6.316272e+11
2.893506e+03, 5.974481e+11
2.896399e+03, 5.580571e+11
2.899296e+03, 5.920758e+11
2.902195e+03, 5.529502e+11
2.905097e+03, 7.069980e+11
2.908002e+03, 7.520940e+11
2.910910e+03, 6.517555e+11
2.913821e+03, 6.397247e+11
2.916735e+03, 9.909181e+11
2.919652e+03, 8.204541e+11
2.922571e+03, 8.738978e+11
2.925494e+03, 8.031456e+11
2.928420e+03, 4.619353e+11
2.931348e+03, 6.334701e+11
2.934279e+03, 7.690704e+11
2.937214e+03, 4.329702e+11
2.940151e+03, 7.279434e+11
2.943091e+03, 4.823359e+11
2.946034e+03, 6.390547e+11
2.948980e+03, 4.261352e+11
2.951929e+03, 8.431342e+11
2.954881e+03, 4.727056e+11
2.957836e+03, 4.376126e+11
2.960794e+03, 8.955727e+11
2.963754e+03, 8.050405e+11
2.966718e+03, 3.414213e+11
2.969685e+03, 4.072083e+11
2.972655e+03, 4.145252e+11
2.975627e+03, 5.260845e+11
2.978603e+03, 8.733314e+11
2.981581e+03, 6.409998e+11
2.984563e+03, 3.986715e+11
2.987548e+03, 5.694774e+11
2.990535e+03, 9.436754e+11
2.993526e+03, 6.033763e+11
2.996519e+03, 4.619422e+11
2.999516e+03, 5.842630e+11
3.002515e+03, 3.571664e+11
3.005518e+03, 6.208044e+11
3.008523e+03, 4.034106e+11
3.011532e+03, 7.566692e+11
3.014543e+03, 7.945455e+11
3.017558e+03, 6.486449e+11
3.020575e+03, 2.867745e+11
3.023596e+03, 4.952481e+11
3.026620e+03, 4.714862e+11
3.029646e+03, 1.005504e+12
3.032676e+03, 1.167621e+12
3.035709e+03, 1.183044e+12
3.038744e+03, 6.233757e+11
3.041783e+03, 8.447145e+11
3.044825e+03, 1.023922e+12
3.047870e+03, 6.650891e+11
3.050918e+03, 8.455391e+11
3.053968e+03, 1.068120e+12
3.057022e+03, 8.695159e+11
3.060079e+03, 5.951079e+11
3.063140e+03, 1.396698e+12
3.066203e+03, 1.687370e+12
3.069269e+03, 1.648289e+12
3.072338e+03, 2.015027e+12
3.075410e+03, 1.398774e+12
3.078486e+03, 1.799408e+12
3.081564e+03, 1.083652e+12
3.084646e+03, 9.889214e+11
3.087731e+03, 1.842191e+12
3.090818e+03, 1.344434e+12
3.093909e+03, 6.472285e+11
3.097003e+03, 1.309073e+12
3.100100e+03, 1.256067e+12
3.103200e+03, 1.235695e+12
3.106303e+03, 2.524044e+12
3.109410e+03, 3.105161e+12
3.112519e+03, 2.757105e+12
3.115632e+03, 2.737013e+12
3.118747e+03, 2.483425e+12
3.121866e+03, 2.657257e+12
3.124988e+03, 3.418282e+12
3.128113e+03, 3.764621e+12
3.131241e+03, 2.496588e+12
3.134372e+03, 1.905855e+12
3.137507e+03, 3.468939e+12
3.140644e+03, 3.675910e+12
3.143785e+03, 3.488140e+12
3.146928e+03, 3.140106e+12
3.150075e+03, 4.110526e+12
3.153225e+03, 3.681677e+12
3.156379e+03, 4.025422e+12
3.159535e+03, 2.755552e+12
3.162695e+03, 2.687317e+12
3.165857e+03, 3.598720e+12
3.169023e+03, 4.008950e+12
3.172192e+03, 4.251015e+12
3.175364e+03, 5.299736e+12
3.178540e+03, 4.963361e+12
3.181718e+03, 2.986412e+12
3.184900e+03, 1.935298e+12
3.188085e+03, 3.466618e+12
3.191273e+03, 2.888804e+12
3.194464e+03, 2.579347e+12
3.197659e+03, 3.071659e+12
3.200856e+03, 2.664067e+12
3.204057e+03, 4.990056e+12
3.207261e+03, 5.123977e+12
3.210469e+03, 4.198868e+12
3.213679e+03, 2.891509e+12
3.216893e+03, 3.089354e+12
3.220110e+03, 4.166806e+12
3.223330e+03, 3.271346e+12
3.226553e+03, 2.740184e+12
3.229780e+03, 3.014557e+12
3.233009e+03, 3.851066e+12
3.236242e+03, 2.753891e+12
3.239479e+03, 4.734137e+12
3.242718e+03, 4.305096e+12
3.245961e+03, 4.101219e+12
3.249207e+03, 3.331903e+12
3.252456e+03, 4.876096e+12
3.255708e+03, 5.856453e+12
3.258964e+03, 6.798925e+12
3.262223e+03, 6.626919e+12
3.265485e+03, 5.019025e+12
3.268751e+03, 7.933064e+12
3.272020e+03, 5.021033e+12
3.275292e+03, 5.029921e+12
3.278567e+03, 7.176762e+12
3.281845e+03, 6.730475e+12
3.285127e+03, 5.727073e+12
3.288412e+03, 5.742259e+12
3.291701e+03, 7.897967e+12
3.294993e+03, 9.046251e+12
3.298288e+03, 8.066083e+12
3.301586e+03, 8.340696e+12
3.304887e+03, 5.861932e+12
3.308192e+03, 4.725106e+12
3.311500e+03, 6.622798e+12
3.314812e+03, 5.546367e+12
3.318127e+03, 5.787030e+12
3.321445e+03, 6.743064e+12
3.324766e+03, 5.370907e+12
3.328091e+03, 8.585714e+12
3.331419e+03, 6.628917e+12
3.334751e+03, 5.141239e+12
3.338085e+03, 5.594054e+12
3.341423e+03, 5.567330e+12
3.344765e+03, 6.091897e+12
3.348110e+03, 7.769627e+12
3.351458e+03, 3.375507e+12
3.354809e+03, 6.197485e+12
3.358164e+03, 6.222862e+12
3.361522e+03, 1.741845e+12
3.364884e+03, 6.737711e+12
3.368249e+03, 4.263935e+12
3.371617e+03, 2.025348e+12
3.374988e+03, 4.274327e+12
3.378363e+03, 5.680458e+12
3.381742e+03, 3.781940e+12
3.385124e+03, 5.655258e+12
3.388509e+03, 5.377365e+12
3.391897e+03, 4.542951e+12
3.395289e+03, 4.754773e+12
3.398684e+03, 7.048431e+12
3.402083e+03, 7.458655e+12
3.405485e+03, 5.548511e+12
3.408891e+03, 5.273255e+12
3.412300e+03, 5.216603e+12
3.415712e+03, 2.425255e+12
3.419128e+03, 5.899648e+12
3.422547e+03, 7.307140e+12
3.425969e+03, 5.192675e+12
3.429395e+03, 7.199212e+12
3.432825e+03, 5.205017e+12
3.436257e+03, 4.940092e+12
3.439694e+03, 2.770150e+12
3.443133e+03, 1.663287e+12
3.446576e+03, 2.578813e+12
3.450023e+03, 6.307661e+12
3.453473e+03, 4.226864e+12
3.456927e+03, 7.118386e+12
3.460383e+03, 4.780208e+12
3.463844e+03, 5.035365e+12
3.467308e+03, 3.429493e+12
3.470775e+03, 7.274537e+12
3.474246e+03, 5.329709e+12
3.477720e+03, 2.982780e+12
3.481198e+03, 9.023399e+12
3.484679e+03, 8.039856e+12
3.488164e+03, 8.208411e+12
3.491652e+03, 2.980366e+12
3.495143e+03, 4.936298e+12
3.498639e+03, 4.542730e+12
3.502137e+03, 7.508628e+12
3.505639e+03, 1.221534e+13
3.509145e+03, 1.058457e+13
3.512654e+03, 6.314761e+12
3.516167e+03, 4.275034e+12
3.519683e+03, 8.532065e+12
3.523203e+03, 4.615069e+12
3.526726e+03, 2.753012e+12
3.530253e+03, 7.885256e+12
3.533783e+03, 1.006298e+13
3.537317e+03, 1.113066e+13
3.540854e+03, 1.248333e+13
3.544395e+03, 1.323950e+13
3.547939e+03, 1.014443e+13
3.551487e+03, 1.168345e+13
3.555039e+03, 8.338180e+12
3.558594e+03, 7.224747e+12
3.562152e+03, 9.137577e+12
3.565714e+03, 4.838469e+12
3.569280e+03, 4.347749e+12
3.572849e+03, 4.512078e+12
3.576422e+03, 5.188681e+12
3.579999e+03, 2.600250e+12
3.583579e+03, 3.617006e+12
3.587162e+03, 3.113869e+12
3.590749e+03, 6.714558e+12
3.594340e+03, 3.546053e+12
3.597934e+03, 7.457307e+12
3.601532e+03, 1.058943e+13
3.605134e+03, 4.434093e+12
3.608739e+03, 3.971993e+12
3.612348e+03, 6.472686e+12
3.615960e+03, 9.619017e+12
3.619576e+03, 4.225474e+12
3.623196e+03, 7.871225e+12
3.626819e+03, 1.158080e+13
3.630446e+03, 7.966584e+12
3.634076e+03, 6.090402e+12
3.637710e+03, 7.786952e+12
3.641348e+03, 1.227849e+13
3.644989e+03, 5.797233e+12
3.648634e+03, 3.985867e+12
3.652283e+03, 8.152338e+12
3.655935e+03, 1.026679e+13
3.659591e+03, 1.614392e+13
3.663251e+03, 1.581239e+13
3.666914e+03, 1.696168e+13
3.670581e+03, 1.300106e+13
3.674251e+03, 1.466798e+13
3.677926e+03, 1.177691e+13
3.681604e+03, 6.342859e+12
3.685285e+03, 1.011972e+13
3.688971e+03, 7.677828e+12
3.692660e+03, 1.593317e+13
3.696352e+03, 1.442304e+13
3.700049e+03, 1.686344e+13
3.703749e+03, 9.894746e+12
3.707452e+03, 4.417596e+12
3.711160e+03, 7.700330e+12
3.714871e+03, 1.166801e+13
3.718586e+03, 5.157946e+12
3.722304e+03, 2.494934e+12
3.726027e+03, 7.117814e+12
3.729753e+03, 5.868953e+12
3.733482e+03, 4.599747e+12
3.737216e+03, 2.501259e+12
3.740953e+03, 5.496090e+12
3.744694e+03, 4.581931e+12
3.748439e+03, 2.851746e+12
3.752187e+03, 5.441422e+12
3.755939e+03, 9.823977e+12
3.759695e+03, 5.842726e+12
3.763455e+03, 8.068105e+12
3.767219e+03, 6.713847e+12
3.770986e+03, 1.464021e+13
3.774757e+03, 1.866360e+13
3.778532e+03, 1.651101e+13
3.782310e+03, 2.087579e+13
3.786092e+03, 1.414655e+13
3.789878e+03, 8.590370e+12
3.793668e+03, 1.383046e+13
3.797462e+03, 1.015885e+13
3.801259e+03, 9.479968e+12
3.805061e+03, 1.802235e+13
3.808866e+03, 1.363227e+13
3.812675e+03, 1.371460e+13
3.816487e+03, 7.614601e+12
3.820304e+03, 6.105992e+12
3.824124e+03, 5.263564e+12
3.827948e+03, 4.751512e+12
3.831776e+03, 7.201849e+12
3.835608e+03, 6.995284e+12
3.839444e+03, 7.148221e+12
3.843283e+03, 9.248189e+12
3.847126e+03, 1.401352e+13
3.850973e+03, 1.019024e+13
3.854824e+03, 1.063289e+13
3.858679e+03, 4.370003e+12
3.862538e+03, 5.931070e+12
3.866400e+03, 9.627866e+12
3.870267e+03, 1.500656e+13
3.874137e+03, 1.076001e+13
3.878011e+03, 7.514654e+12
3.881889e+03, 1.154272e+13
3.885771e+03, 7.593968e+12
3.889657e+03, 8.374785e+12
3.893547e+03, 1.541161e+13
3.897440e+03, 9.196653e+12
3.901338e+03, 9.352717e+12
3.905239e+03, 1.095474e+13
3.909144e+03, 1.352143e+13
3.913053e+03, 2.006117e+13
3.916966e+03, 1.705079e+13
3.920883e+03, 8.769164e+12
3.924804e+03, 8.542916e+12
3.928729e+03, 7.644516e+12
3.932658e+03, 4.495350e+12
3.936590e+03, 5.395273e+12
3.940527e+03, 1.141780e+13
3.944467e+03, 6.100363e+12
3.948412e+03, 1.017644e+13
3.952360e+03, 1.632924e+13
3.956313e+03, 1.532071e+13
3.960269e+03, 8.281596e+12
3.964229e+03, 6.105759e+12
3.968194e+03, 5.649458e+12
3.972162e+03, 8.711646e+12
3.976134e+03, 1.572161e+13
3.980110e+03, 2.252063e+13
3.984090e+03, 1.784052e+13
3.988074e+03, 2.620376e+13
3.992062e+03, 2.122765e+13
3.996054e+03, 2.773685e+13
4.000050e+03, 2.034089e+13
4.004050e+03, 2.958050e+13
4.008055e+03, 2.288121e+13
4.012063e+03, 2.418333e+13
4.016075e+03, 3.218526e+13
4.020091e+03, 2.892702e+13
4.024111e+03, 2.537122e+13
4.028135e+03, 2.796577e+13
4.032163e+03, 1.176009e+13
4.036195e+03, 1.570909e+13
4.040231e+03, 3.104043e+13
4.044272e+03, 2.093882e+13
4.048316e+03, 1.461592e+13
4.052364e+03, 3.130975e+13
4.056417e+03, 3.000194e+13
4.060473e+03, 2.570530e+13
4.064533e+03, 1.598011e+13
4.068598e+03, 2.675338e+13
4.072667e+03, 1.911470e+13
4.076739e+03, 2.694373e+13
4.080816e+03, 2.830809e+13
4.084897e+03, 2.968301e+13
4.088982e+03, 4.138892e+13
4.093071e+03, 3.498190e+13
4.097164e+03, 2.443624e+13
4.101261e+03, 1.936948e+13
4.105362e+03, 2.637778e+13
4.109468e+03, 2.486989e+13
4.113577e+03, 2.273652e+13
4.117691e+03, 2.284516e+13
4.121808e+03, 2.347526e+13
4.125930e+03, 3.014844e+13
4.130056e+03, 2.370033e+13
4.134186e+03, 1.730791e+13
4.138320e+03, 3.066705e+13
4.142459e+03, 2.180836e+13
4.146601e+03, 2.133447e+13
4.150748e+03, 2.720968e+13
4.154898e+03, 2.690502e+13
4.159053e+03, 3.068831e+13
4.163212e+03, 3.596326e+13
4.167376e+03, 2.477646e+13
4.171543e+03, 2.408976e+13
4.175714e+03, 2.250752e+13
4.179890e+03, 3.239504e+13
4.184070e+03, 2.622649e+13
4.188254e+03, 2.446297e+13
4.192442e+03, 2.953867e+13
4.196635e+03, 2.892377e+13
4.200831e+03, 1.889661e+13
4.205032e+03, 2.172413e+13
4.209237e+03, 2.524410e+13
4.213447e+03, 2.228325e+13
4.217660e+03, 1.659281e+13
4.221878e+03, 1.249491e+13
4.226100e+03, 6.229976e+12
4.230326e+03, 7.417545e+12
4.234556e+03, 1.288448e+13
4.238791e+03, 1.854643e+13
4.243029e+03, 2.416269e+13
4.247272e+03, 2.773075e+13
4.251520e+03, 1.954968e+13
4.255771e+03, 1.305318e+13
4.260027e+03, 2.247777e+13
4.264287e+03, 3.125691e+13
4.268551e+03, 2.930057e+13
4.272820e+03, 1.710927e+13
4.277093e+03, 1.615881e+13
4.281370e+03, 2.883976e+13
4.285651e+03, 2.230475e+13
4.289937e+03, 1.602338e+13
4.294227e+03, 2.213117e+13
4.298521e+03, 2.626607e+13
4.302819e+03, 1.749362e+13
4.307122e+03, 2.069854e+13
4.311429e+03, 3.016653e+13
4.315741e+03, 3.390966e+13
4.320057e+03, 3.329202e+13
4.324377e+03, 3.301068e+13
4.328701e+03, 2.902617e+13
4.333030e+03, 4.289268e+13
4.337363e+03, 3.974550e+13
4.341700e+03, 3.748957e+13
4.346042e+03, 3.790909e+13
4.350388e+03, 4.496468e+13
4.354738e+03, 3.253008e+13
4.359093e+03, 4.080879e+13
4.363452e+03, 4.746321e+13
4.367815e+03, 4.721654e+13
4.372183e+03, 4.186352e+13
4.376555e+03, 3.262046e+13
4.380932e+03, 3.380595e+13
4.385313e+03, 1.918705e+13
4.389698e+03, 3.538366e+13
4.394088e+03, 4.116253e+13
4.398482e+03, 4.641551e+13
4.402881e+03, 3.737216e+13
4.407283e+03, 2.276167e+13
4.411691e+03, 4.130056e+13
4.416102e+03, 3.383514e+13
4.420518e+03, 4.793085e+13
4.424939e+03, 3.285647e+13
4.429364e+03, 3.443444e+13
4.433793e+03, 3.681525e+13
4.438227e+03, 3.359660e+13
4.442665e+03, 4.049245e+13
4.447108e+03, 4.711158e+13
4.451555e+03, 4.283419e+13
4.456007e+03, 2.246180e+13
4.460463e+03, 3.181493e+13
4.464923e+03, 3.871738e+13
4.469388e+03, 4.514120e+13
4.473857e+03, 5.091926e+13
4.478331e+03, 5.146287e+13
4.482810e+03, 4.239736e+13
4.487292e+03, 5.240733e+13
4.491780e+03, 4.669179e+13
4.496272e+03, 4.182170e+13
4.500768e+03, 5.269232e+13
4.505269e+03, 5.724121e+13
4.509774e+03, 5.602011e+13
4.514284e+03, 4.941960e+13
4.518798e+03, 5.188472e+13
4.523317e+03, 5.276764e+13
4.527840e+03, 3.762810e+13
4.532368e+03, 3.949447e+13
4.536900e+03, 3.337684e+13
4.541437e+03, 5.104349e+13
4.545979e+03, 4.742292e+13
4.550525e+03, 4.997000e+13
4.555075e+03, 4.389180e+13
4.559630e+03, 5.742321e+13
4.564190e+03, 5.816997e+13
4.568754e+03, 5.750464e+13
4.573323e+03, 5.202288e+13
4.577896e+03, 5.313749e+13
4.582474e+03, 4.631353e+13
4.587056e+03, 4.568217e+13
4.591643e+03, 5.239831e+13
4.596235e+03, 4.843993e+13
4.600831e+03, 5.077400e+13
4.605432e+03, 5.163051e+13
4.610038e+03, 5.561482e+13
4.614648e+03, 5.561089e+13
4.619262e+03, 5.029995e+13
4.623882e+03, 5.485430e+13
4.628505e+03, 5.061057e+13
4.633134e+03, 5.454246e+13
4.637767e+03, 5.314216e+13
4.642405e+03, 5.374494e+13
4.647047e+03, 4.706542e+13
4.651694e+03, 4.578313e+13
4.656346e+03, 5.032389e+13
4.661002e+03, 6.181194e+13
4.665663e+03, 5.610220e+13
4.670329e+03, 4.713652e+13
4.674999e+03, 5.444313e+13
4.679674e+03, 5.637011e+13
4.684354e+03, 4.788128e+13
4.689038e+03, 5.394723e+13
4.693727e+03, 5.432301e+13
4.698421e+03, 5.333893e+13
4.703120e+03, 5.178736e+13
4.707823e+03, 5.462159e+13
4.712530e+03, 4.928778e+13
4.717243e+03, 4.612910e+13
4.721960e+03, 5.022097e+13
4.726682e+03, 5.214147e+13
4.731409e+03, 4.830182e+13
4.736140e+03, 4.909341e+13
4.740876e+03, 4.950765e+13
4.745617e+03, 4.807118e+13
4.750363e+03, 5.337256e+13
4.755113e+03, 4.585440e+13
4.759868e+03, 4.260625e+13
4.764628e+03, 3.925677e+13
4.769393e+03, 3.792117e+13
4.774162e+03, 4.035439e+13
4.778936e+03, 4.032113e+13
4.783715e+03, 4.258132e+13
4.788499e+03, 3.973036e+13
4.793288e+03, 4.521777e+13
4.798081e+03, 5.152583e+13
4.802879e+03, 4.906007e+13
4.807682e+03, 5.041020e+13
4.812490e+03, 5.033682e+13
4.817302e+03, 5.195246e+13
4.822119e+03, 5.288562e+13
4.826941e+03, 4.898850e+13
4.831768e+03, 4.956227e+13
4.836600e+03, 5.476208e+13
4.841437e+03, 4.983570e+13
4.846278e+03, 5.497322e+13
4.851124e+03, 5.690546e+13
4.855976e+03, 5.903657e+13
4.860832e+03, 5.853101e+13
4.865692e+03, 5.954990e+13
4.870558e+03, 5.434999e+13
4.875429e+03, 5.433299e+13
4.880304e+03, 5.688831e+13
4.885184e+03, 5.646654e+13
4.890070e+03, 5.244192e+13
4.894960e+03, 5.841138e+13
4.899855e+03, 6.016741e+13
4.904754e+03, 5.823616e+13
4.909659e+03, 5.838311e+13
4.914569e+03, 5.936479e+13
4.919483e+03, 5.377039e+13
4.924403e+03, 5.641716e+13
4.929327e+03, 5.749932e+13
4.934257e+03, 6.094002e+13
4.939191e+03, 5.563026e+13
4.944130e+03, 5.947611e+13
4.949074e+03, 5.602960e+13
4.954023e+03, 6.097020e+13
4.958977e+03, 4.041093e+13
4.963936e+03, 4.380023e+13
4.968900e+03, 4.440578e+13
4.973869e+03, 4.755586e+13
4.978843e+03, 4.672257e+13
4.983822e+03, 4.104736e+13
4.988806e+03, 4.683349e+13
4.993794e+03, 4.360376e+13
4.998788e+03, 4.446870e+13
5.003787e+03, 4.074501e+13
5.008791e+03, 3.627216e+13
5.013800e+03, 4.004496e+13
5.018813e+03, 4.352441e+13
5.023832e+03, 3.786965e+13
5.028856e+03, 4.168797e+13
5.033885e+03, 5.166402e+13
5.038919e+03, 3.972261e+13
5.043958e+03, 3.664466e+13
5.049002e+03, 4.527876e+13
5.054051e+03, 4.627451e+13
5.059105e+03, 4.529671e+13
5.064164e+03, 3.964866e+13
5.069228e+03, 4.042587e+13
5.074297e+03, 4.519225e+13
5.079372e+03, 4.200296e+13
5.084451e+03, 4.178420e+13
5.089535e+03, 4.330695e+13
5.094625e+03, 4.416428e+13
5.099720e+03, 4.000788e+13
5.104819e+03, 4.472872e+13
5.109924e+03, 4.017820e+13
5.115034e+03, 4.930289e+13
5.120149e+03, 4.186649e+13
5.125269e+03, 4.080203e+13
5.130394e+03, 3.724000e+13
5.135525e+03, 5.005030e+13
5.140660e+03, 4.547372e+13
5.145801e+03, 3.920389e+13
5.150947e+03, 3.983221e+13
5.156098e+03, 3.745338e+13
5.161254e+03, 5.727907e+13
5.166415e+03, 4.344684e+13
5.171582e+03, 2.891332e+13
5.176753e+03, 3.330329e+13
5.181930e+03, 3.056488e+13
5.187112e+03, 3.937207e+13
5.192299e+03, 4.365316e+13
5.197491e+03, 4.988595e+13
5.202689e+03, 4.858045e+13
5.207891e+03, 2.529412e+13
5.213099e+03, 4.847475e+13
5.218312e+03, 6.409149e+13
5.223531e+03, 6.598081e+13
5.228754e+03, 5.482867e+13
5.233983e+03, 6.757858e+13
5.239217e+03, 7.323941e+13
5.244456e+03, 7.120893e+13
5.249701e+03, 6.173336e+13
5.254950e+03, 6.830686e+13
5.260205e+03, 7.335773e+13
5.265465e+03, 4.419723e+13
5.270731e+03, 4.360570e+13
5.276002e+03, 6.521214e+13
5.281278e+03, 7.398655e+13
5.286559e+03, 7.497963e+13
5.291846e+03, 7.987154e+13
5.297137e+03, 6.602927e+13
5.302435e+03, 6.985968e+13
5.307737e+03, 8.214552e+13
5.313045e+03, 8.011541e+13
5.318358e+03, 8.052686e+13
5.323676e+03, 7.185122e+13
5.329000e+03, 4.848810e+13
5.334329e+03, 7.406925e+13
5.339663e+03, 7.571415e+13
5.345003e+03, 6.646942e+13
5.350348e+03, 6.864070e+13
5.355698e+03, 8.268511e+13
5.361054e+03, 8.286456e+13
5.366415e+03, 7.311347e+13
5.371781e+03, 6.081450e+13
5.377153e+03, 7.913944e+13
5.382530e+03, 8.014561e+13
5.387913e+03, 8.036939e+13
5.393301e+03, 7.425526e+13
5.398694e+03, 6.384212e+13
5.404093e+03, 7.122938e+13
5.409497e+03, 5.804215e+13
5.414906e+03, 7.712063e+13
5.420321e+03, 8.114543e+13
5.425741e+03, 7.798403e+13
5.431167e+03, 6.848272e+13
5.436598e+03, 6.671260e+13
5.442035e+03, 8.234625e+13
5.447477e+03, 6.603244e+13
5.452924e+03, 6.909752e+13
5.458377e+03, 6.353899e+13
5.463836e+03, 7.081441e+13
5.469300e+03, 7.434575e+13
5.474769e+03, 7.249490e+13
5.480244e+03, 6.899583e+13
5.485724e+03, 7.600844e+13
5.491210e+03, 7.417638e+13
5.496701e+03, 7.171652e+13
5.502198e+03, 7.282980e+13
5.507700e+03, 7.148465e+13
5.513207e+03, 6.630050e+13
5.518721e+03, 7.483190e+13
5.524239e+03, 8.102552e+13
5.529764e+03, 7.695961e+13
5.535293e+03, 7.932767e+13
5.540829e+03, 8.270754e+13
5.546370e+03, 7.982832e+13
5.551916e+03, 8.449507e+13
5.557468e+03, 8.281901e+13
5.563025e+03, 8.124297e+13
5.568588e+03, 7.693100e+13
5.574157e+03, 7.984717e+13
5.579731e+03, 8.354572e+13
5.585311e+03, 7.696435e+13
5.590896e+03, 6.150911e+13
5.596487e+03, 6.995108e+13
5.602083e+03, 5.943493e+13
5.607686e+03, 8.061418e+13
5.613293e+03, 8.120737e+13
5.618907e+03, 7.158016e+13
5.624525e+03, 7.760473e+13
5.630150e+03, 8.057590e+13
5.635780e+03, 8.496757e+13
5.641416e+03, 8.312854e+13
5.647057e+03, 8.152142e+13
5.652704e+03, 8.701534e+13
5.658357e+03, 8.325776e+13
5.664015e+03, 8.027485e+13
5.669679e+03, 8.439785e+13
5.675349e+03, 8.483512e+13
5.681024e+03, 8.903834e+13
5.686705e+03, 8.285163e+13
5.692392e+03, 8.530329e+13
5.698085e+03, 8.659285e+13
5.703783e+03, 8.391457e+13
5.709486e+03, 8.344325e+13
5.715196e+03, 8.464082e+13
5.720911e+03, 9.130224e+13
5.726632e+03, 8.829150e+13
5.732359e+03, 9.117133e+13
5.738091e+03, 9.221720e+13
5.743829e+03, 9.184724e+13
5.749573e+03, 9.407195e+13
5.755323e+03, 9.318301e+13
5.761078e+03, 9.072454e+13
5.766839e+03, 8.982018e+13
5.772606e+03, 9.272817e+13
5.778378e+03, 9.123013e+13
5.784157e+03, 8.596414e+13
5.789941e+03, 8.734836e+13
5.795731e+03, 9.445025e+13
5.801527e+03, 9.413239e+13
5.807328e+03, 9.383518e+13
5.813135e+03, 9.139791e+13
5.818949e+03, 9.242445e+13
5.824768e+03, 9.420988e+13
5.830592e+03, 9.424173e+13
5.836423e+03, 9.335540e+13
5.842259e+03, 9.265012e+13
5.848102e+03, 9.265484e+13
5.853950e+03, 8.838717e+13
5.859804e+03, 7.956317e+13
5.865663e+03, 8.462920e+13
5.871529e+03, 8.594865e+13
5.877401e+03, 8.143220e+13
5.883278e+03, 7.006995e+13
5.889161e+03, 3.926995e+13
5.895050e+03, 3.276055e+13
5.900945e+03, 5.091020e+13
5.906846e+03, 7.484457e+13
5.912753e+03, 8.117990e+13
5.918666e+03, 8.167945e+13
5.924585e+03, 8.306900e+13
5.930509e+03, 8.586517e+13
5.936440e+03, 8.762611e+13
5.942376e+03, 8.647588e+13
5.948319e+03, 8.720101e+13
5.954267e+03, 8.650854e+13
5.960221e+03, 8.702967e+13
5.966181e+03, 8.818285e+13
5.972148e+03, 8.949919e+13
5.978120e+03, 8.695518e+13
5.984098e+03, 8.907391e+13
5.990082e+03, 9.190134e+13
5.996072e+03, 9.206922e+13
6.002068e+03, 9.056283e+13
6.008070e+03, 9.040775e+13
6.014078e+03, 9.229743e+13
6.020092e+03, 9.082663e+13
6.026112e+03, 9.088791e+13
6.032139e+03, 9.655870e+13
6.038171e+03, 9.780286e+13
6.044209e+03, 9.587041e+13
6.050253e+03, 9.888554e+13
6.056303e+03, 9.736207e+13
6.062360e+03, 9.676755e+13
6.068422e+03, 9.526729e+13
6.074490e+03, 1.010655e+14
6.080565e+03, 9.887759e+13
6.086645e+03, 9.842854e+13
6.092732e+03, 9.626492e+13
6.098825e+03, 9.908717e+13
6.104924e+03, 8.515478e+13
6.111029e+03, 9.645791e+13
6.117140e+03, 1.005728e+14
6.123257e+03, 7.778650e+13
6.129380e+03, 9.563019e+13
6.135509e+03, 9.567293e+13
6.141645e+03, 9.363795e+13
6.147787e+03, 9.998970e+13
6.153934e+03, 9.522449e+13
6.160088e+03, 8.349095e+13
6.166248e+03, 6.549722e+13
6.172415e+03, 7.622261e+13
6.178587e+03, 9.064997e+13
6.184766e+03, 9.124693e+13
6.190950e+03, 8.251654e+13
6.197141e+03, 8.801561e+13
6.203338e+03, 8.661038e+13
6.209542e+03, 8.882375e+13
6.215751e+03, 7.892197e+13
6.221967e+03, 8.108955e+13
6.228189e+03, 7.898475e+13
6.234417e+03, 7.932744e+13
6.240652e+03, 8.055006e+13
6.246892e+03, 8.001518e+13
6.253139e+03, 8.133813e+13
6.259392e+03, 7.678327e+13
6.265652e+03, 8.313968e+13
6.271917e+03, 8.774538e+13
6.278189e+03, 8.637391e+13
6.284467e+03, 8.671339e+13
6.290752e+03, 8.891700e+13
6.297043e+03, 8.456078e+13
6.303340e+03, 8.848818e+13
6.309643e+03, 8.779587e+13
6.315953e+03, 9.035764e+13
6.322269e+03, 8.789439e+13
6.328591e+03, 9.247440e+13
6.334920e+03, 9.074339e+13
6.341254e+03, 9.481022e+13
6.347596e+03, 9.634723e+13
6.353943e+03, 9.580764e+13
6.360297e+03, 9.021589e+13
6.366658e+03, 8.772712e+13
6.373024e+03, 8.956978e+13
6.379397e+03, 8.398151e+13
6.385777e+03, 8.196452e+13
6.392162e+03, 7.889831e+13
6.398555e+03, 8.569003e+13
6.404953e+03, 8.774074e+13
6.411358e+03, 9.096288e+13
6.417769e+03, 9.263722e+13
6.424187e+03, 9.184179e+13
6.430611e+03, 9.189942e+13
6.437042e+03, 9.099560e+13
6.443479e+03, 8.337507e+13
6.449923e+03, 9.104911e+13
6.456372e+03, 9.453844e+13
6.462829e+03, 7.871283e+13
6.469292e+03, 9.853313e+13
6.475761e+03, 9.558045e+13
6.482237e+03, 1.005838e+14
6.488719e+03, 1.001603e+14
6.495208e+03, 8.147132e+13
6.501703e+03, 9.060905e+13
6.508205e+03, 1.009553e+14
6.514713e+03, 1.035177e+14
6.521227e+03, 1.030707e+14
6.527749e+03, 1.044512e+14
6.534276e+03, 1.042263e+14
6.540811e+03, 1.058687e+14
6.547352e+03, 1.003738e+14
6.553899e+03, 1.018920e+14
6.560453e+03, 1.021718e+14
6.567013e+03, 1.028722e+14
6.573580e+03, 9.717090e+13
6.580154e+03, 1.020452e+14
6.586734e+03, 1.032599e+14
6.593321e+03, 9.975614e+13
6.599914e+03, 1.041646e+14
6.606514e+03, 1.044071e+14
6.613120e+03, 1.021888e+14
6.619734e+03, 1.032902e+14
6.626353e+03, 1.031144e+14
6.632980e+03, 1.017854e+14
6.639613e+03, 1.041337e+14
6.646252e+03, 1.025726e+14
6.652899e+03, 9.911929e+13
6.659551e+03, 9.875645e+13
6.666211e+03, 9.581826e+13
6.672877e+03, 1.009829e+14
6.679550e+03, 9.526792e+13
6.686230e+03, 9.313631e+13
6.692916e+03, 9.517090e+13
6.699609e+03, 9.560559e+13
6.706308e+03, 9.157783e+13
6.713015e+03, 8.924048e+13
6.719728e+03, 8.347832e+13
6.726447e+03, 8.687123e+13
6.733174e+03, 8.839892e+13
6.739907e+03, 8.827455e+13
6.746647e+03, 8.562945e+13
6.753394e+03, 8.361730e+13
6.760147e+03, 8.686954e+13
6.766907e+03, 8.620796e+13
6.773674e+03, 8.855238e+13
6.780448e+03, 8.654214e+13
6.787228e+03, 8.300653e+13
6.794015e+03, 8.291050e+13
6.800809e+03, 8.311879e+13
6.807610e+03, 8.486785e+13
6.814418e+03, 8.458284e+13
6.821232e+03, 8.267222e+13
6.828053e+03, 8.222226e+13
6.834882e+03, 8.195927e+13
6.841716e+03, 7.929040e+13
6.848558e+03, 7.996346e+13
6.855407e+03, 7.771542e+13
6.862262e+03, 7.400260e+13
6.869124e+03, 7.828052e+13
6.875994e+03, 7.961595e+13
6.882869e+03, 7.854071e+13
6.889752e+03, 7.802191e+13
6.896642e+03, 8.184824e+13
6.903539e+03, 8.075073e+13
6.910442e+03, 8.593798e+13
6.917353e+03, 8.246791e+13
6.924270e+03, 8.837832e+13
6.931194e+03, 9.163704e+13
6.938126e+03, 9.104987e+13
6.945064e+03, 9.303974e+13
6.952009e+03, 9.534110e+13
6.958961e+03, 9.476695e+13
6.965920e+03, 9.520634e+13
6.972886e+03, 9.474138e+13
6.979859e+03, 9.076158e+13
6.986838e+03, 9.722713e+13
6.993825e+03, 9.294607e+13
7.000819e+03, 9.573890e+13
7.007820e+03, 9.652211e+13
7.014828e+03, 9.698784e+13
7.021843e+03, 9.764199e+13
7.028864e+03, 1.031771e+14
7.035893e+03, 9.990695e+13
7.042929e+03, 1.091275e+14
7.049972e+03, 1.124895e+14
7.057022e+03, 1.003976e+14
7.064079e+03, 9.625327e+13
7.071143e+03, 9.997732e+13
7.078214e+03, 1.021886e+14
7.085292e+03, 1.010088e+14
7.092378e+03, 8.918646e+13
7.099470e+03, 9.209604e+13
7.106570e+03, 9.459988e+13
7.113676e+03, 9.459844e+13
7.120790e+03, 9.850896e+13
7.127911e+03, 8.758905e+13
7.135039e+03, 8.433178e+13
7.142174e+03, 8.582427e+13
7.149316e+03, 7.840723e+13
7.156465e+03, 9.165206e+13
7.163622e+03, 8.936140e+13
7.170785e+03, 9.301874e+13
7.177956e+03, 9.489576e+13
7.185134e+03, 9.591398e+13
7.192319e+03, 9.400234e+13
7.199511e+03, 9.585902e+13
7.206711e+03, 9.077303e+13
7.213918e+03, 9.429987e+13
7.221132e+03, 9.828215e+13
7.228353e+03, 1.000262e+14
7.235581e+03, 1.012717e+14
7.242817e+03, 1.016290e+14
7.250059e+03, 1.014888e+14
7.257309e+03, 1.027412e+14
7.264567e+03, 1.053340e+14
7.271831e+03, 1.049871e+14
7.279103e+03, 1.066101e+14
7.286382e+03, 1.072076e+14
7.293669e+03, 1.061208e+14
7.300962e+03, 1.089208e+14
7.308263e+03, 1.082898e+14
7.315572e+03, 1.088740e+14
7.322887e+03, 1.091828e+14
7.330210e+03, 1.018356e+14
7.337540e+03, 1.105867e+14
7.344878e+03, 1.095130e+14
7.352223e+03, 1.100477e+14
7.359575e+03, 1.068439e+14
7.366934e+03, 1.081840e+14
7.374301e+03, 1.128863e+14
7.381676e+03, 1.124622e+14
7.389057e+03, 1.098334e+14
7.396446e+03, 1.123065e+14
7.403843e+03, 1.098477e+14
7.411247e+03, 1.114034e+14
7.418658e+03, 1.113296e+14
7.426077e+03, 1.102809e+14
7.433503e+03, 1.125943e+14
7.440936e+03, 1.125878e+14
7.448377e+03, 1.105837e+14
7.455825e+03, 1.137210e+14
7.463281e+03, 1.100036e+14
7.470745e+03, 1.137995e+14
7.478215e+03, 1.142888e+14
7.485694e+03, 1.138490e+14
7.493179e+03, 1.118269e+14
7.500672e+03, 1.118510e+14
7.508173e+03, 1.131707e+14
7.515681e+03, 1.118659e+14
7.523197e+03, 1.140990e+14
7.530720e+03, 1.130481e+14
7.538251e+03, 1.146529e+14
7.545789e+03, 1.146170e+14
7.553335e+03, 1.143034e+14
7.560888e+03, 1.141165e+14
7.568449e+03, 1.137826e+14
7.576018e+03, 1.137679e+14
7.583594e+03, 1.133436e+14
7.591177e+03, 1.107431e+14
7.598768e+03, 1.126651e+14
7.606367e+03, 1.118762e+14
7.613973e+03, 1.106417e+14
7.621587e+03, 1.111819e+14
7.629209e+03, 1.112976e+14
7.636838e+03, 1.109765e+14
7.644475e+03, 1.111171e+14
7.652120e+03, 1.104935e+14
7.659772e+03, 1.075543e+14
7.667431e+03, 9.321105e+13
7.675099e+03, 1.064415e+14
7.682774e+03, 1.063722e+14
7.690457e+03, 1.070586e+14
7.698147e+03, 9.845376e+13
7.705845e+03, 1.066344e+14
7.713551e+03, 1.056939e+14
7.721265e+03, 1.075906e+14
7.728986e+03, 1.077280e+14
7.736715e+03, 1.095633e+14
7.744452e+03, 1.080827e+14
7.752196e+03, 1.035327e+14
7.759948e+03, 1.079946e+14
7.767708e+03, 1.070195e+14
7.775476e+03, 1.086231e+14
7.783252e+03, 1.063366e+14
7.791035e+03, 1.060509e+14
7.798826e+03, 1.069384e+14
7.806625e+03, 1.091056e+14
7.814431e+03, 1.095461e+14
7.822246e+03, 1.086751e+14
7.830068e+03, 1.078765e+14
7.837898e+03, 1.046674e+14
7.845736e+03, 1.053355e+14
7.853582e+03, 1.081410e+14
7.861435e+03, 1.094018e+14
7.869297e+03, 1.093620e+14
7.877166e+03, 1.098578e+14
7.885043e+03, 1.098037e+14
7.892928e+03, 1.090514e+14
7.900821e+03, 1.104518e+14
7.908722e+03, 1.093274e+14
7.916631e+03, 1.085674e+14
7.924547e+03, 1.099307e+14
7.932472e+03, 1.104305e+14
7.940404e+03, 1.077290e+14
7.948345e+03, 1.067141e+14
7.956293e+03, 1.108740e+14
7.964249e+03, 1.108442e+14
7.972214e+03, 1.118496e+14
7.980186e+03, 1.099844e+14
7.988166e+03, 1.111049e+14
7.996154e+03, 1.109252e+14
8.004150e+03, 1.094585e+14
8.012154e+03, 1.118502e+14
8.020167e+03, 1.120628e+14
8.028187e+03, 1.095534e+14
8.036215e+03, 1.120361e+14
8.044251e+03, 1.110555e+14
8.052295e+03, 1.099240e+14
8.060348e+03, 1.119155e+14
8.068408e+03, 1.093522e+14
8.076476e+03, 1.102102e+14
8.084553e+03, 1.103449e+14
8.092637e+03, 1.112274e+14
8.100730e+03, 1.119549e+14
8.108831e+03, 1.122007e+14
8.116940e+03, 1.097130e+14
8.125057e+03, 1.111011e+14
8.133182e+03, 1.117125e+14
8.141315e+03, 1.123170e+14
8.149456e+03, 1.122073e+14
8.157606e+03, 1.124605e+14
8.165763e+03, 1.108221e+14
8.173929e+03, 1.116312e+14
8.182103e+03, 1.020420e+14
8.190285e+03, 1.079128e+14
8.198475e+03, 9.546721e+13
8.206674e+03, 1.085749e+14
8.214880e+03, 1.099146e+14
8.223095e+03, 1.086172e+14
8.231318e+03, 1.109494e+14
8.239550e+03, 1.107541e+14
8.247789e+03, 1.108207e+14
8.256037e+03, 1.101787e+14
8.264293e+03, 1.114507e+14
8.272557e+03, 1.106897e+14
8.280830e+03, 1.107346e+14
8.289111e+03, 1.103809e+14
8.297400e+03, 1.096341e+14
8.305697e+03, 1.087117e+14
8.314003e+03, 1.094599e+14
8.322317e+03, 1.096918e+14
8.330639e+03, 1.033767e+14
8.338970e+03, 1.079749e+14
8.347309e+03, 1.085330e+14
8.355656e+03, 1.089696e+14
8.364012e+03, 1.058465e+14
8.372376e+03, 1.096729e+14
8.380748e+03, 1.051000e+14
8.389129e+03, 1.002462e+14
8.397518e+03, 1.074231e+14
8.405916e+03, 1.088898e+14
8.414322e+03, 1.066682e+14
8.422736e+03, 1.073822e+14
8.431159e+03, 1.051363e+14
8.439590e+03, 9.853898e+13
8.448029e+03, 1.071489e+14
8.456477e+03, 1.045887e+14
8.464934e+03, 1.063663e+14
8.473399e+03, 1.023286e+14
8.481872e+03, 1.063986e+14
8.490354e+03, 1.069527e+14
8.498845e+03, 9.740165e+13
8.507343e+03, 1.061046e+14
8.515851e+03, 1.026915e+14
8.524367e+03, 1.046763e+14
8.532891e+03, 1.052921e+14
8.541424e+03, 8.892120e+13
8.549965e+03, 1.001894e+14
8.558515e+03, 1.063139e+14
8.567074e+03, 1.068179e+14
8.575641e+03, 1.066375e+14
8.584216e+03, 1.058610e+14
8.592801e+03, 1.071754e+14
8.601393e+03, 1.066520e+14
8.609995e+03, 1.056675e+14
8.618605e+03, 1.065066e+14
8.627223e+03, 1.065590e+14
8.635851e+03, 1.070528e+14
8.644486e+03, 1.071758e+14
8.653131e+03, 1.064536e+14
8.661784e+03, 9.118626e+13
8.670446e+03, 1.040777e+14
8.679116e+03, 1.031377e+14
8.687795e+03, 9.834305e+13
8.696483e+03, 1.039064e+14
8.705180e+03, 1.050408e+14
8.713885e+03, 1.038758e+14
8.722599e+03, 1.049062e+14
8.731321e+03, 1.060567e+14
8.740053e+03, 1.040025e+14
8.748793e+03, 1.058214e+14
8.757542e+03, 1.042621e+14
8.766299e+03, 1.041169e+14
8.775065e+03, 1.038803e+14
8.783840e+03, 1.056066e+14
8.792624e+03, 1.052316e+14
8.801417e+03, 1.049020e+14
8.810218e+03, 9.733280e+13
8.819029e+03, 1.065195e+14
8.827848e+03, 1.001019e+14
8.836675e+03, 1.051473e+14
8.845512e+03, 1.055118e+14
8.854358e+03, 1.064893e+14
8.863212e+03, 1.036012e+14
8.872075e+03, 1.016595e+14
8.880947e+03, 1.036101e+14
8.889828e+03, 1.034885e+14
8.898718e+03, 1.034840e+14
8.907617e+03, 1.044135e+14
8.916524e+03, 1.041009e+14
8.925441e+03, 1.029629e+14
8.934366e+03, 1.033998e+14
8.943301e+03, 1.029113e+14
8.952244e+03, 1.026897e+14
8.961196e+03, 1.039422e+14
8.970157e+03, 1.033751e+14
8.979128e+03, 1.020718e+14
8.988107e+03, 1.034259e+14
8.997095e+03, 1.037608e+14
9.006092e+03, 1.011781e+14
9.015098e+03, 9.883280e+13
9.024113e+03, 1.009029e+14
9.033137e+03, 1.021059e+14
9.042170e+03, 1.031135e+14
9.051213e+03, 1.031459e+14
9.060264e+03, 1.022289e+14
9.069324e+03, 1.028146e+14
9.078393e+03, 1.029016e+14
9.087472e+03, 9.887727e+13
9.096559e+03, 1.019931e+14
9.105656e+03, 1.021373e+14
9.114761e+03, 1.035029e+14
9.123876e+03, 1.018305e+14
9.133000e+03, 1.033402e+14
9.142133e+03, 1.026534e+14
9.151275e+03, 1.018153e+14
9.160426e+03, 1.031994e+14
9.169587e+03, 1.028288e+14
9.178757e+03, 1.016340e+14
9.187935e+03, 1.033410e+14
9.197123e+03, 1.031738e+14
9.206320e+03, 1.019150e+14
9.215527e+03, 1.016336e+14
9.224742e+03, 1.016859e+14
9.233967e+03, 1.010994e+14
9.243201e+03, 1.025034e+14
9.252444e+03, 1.008126e+14
9.261697e+03, 9.986545e+13
9.270958e+03, 1.015753e+14
9.280229e+03, 1.011001e+14
9.289509e+03, 1.007900e+14
9.298799e+03, 1.005907e+14
9.308098e+03, 1.013436e+14
9.317406e+03, 1.011142e+14
9.326723e+03, 1.005506e+14
9.336050e+03, 1.011495e+14
9.345386e+03, 1.009986e+14
9.354731e+03, 1.000823e+14
9.364086e+03, 9.865840e+13
9.373450e+03, 9.964415e+13
9.382824e+03, 1.002993e+14
9.392206e+03, 1.001385e+14
9.401599e+03, 9.941247e+13
9.411000e+03, 1.001658e+14
9.420411e+03, 9.828175e+13
9.429832e+03, 1.004416e+14
9.439262e+03, 9.938663e+13
9.448701e+03, 9.839997e+13
9.458149e+03, 9.995659e+13
9.467608e+03, 9.927265e+13
9.477075e+03, 1.003484e+14
9.486552e+03, 9.967669e+13
9.496039e+03, 9.959574e+13
9.505535e+03, 9.950158e+13
9.515040e+03, 9.903607e+13
9.524555e+03, 1.000066e+14
9.534080e+03, 9.945333e+13
9.543614e+03, 9.922940e+13
9.553158e+03, 9.733420e+13
9.562711e+03, 9.889751e+13
9.572274e+03, 9.832884e+13
9.581846e+03, 9.943868e+13
9.591428e+03, 9.947126e+13
9.601019e+03, 9.621593e+13
9.610620e+03, 9.896027e+13
9.620231e+03, 9.921562e+13
9.629851e+03, 9.863969e+13
9.639481e+03, 9.339321e+13
9.649120e+03, 9.617344e+13
9.658769e+03, 9.671171e+13
9.668428e+03, 9.707122e+13
9.678097e+03, 9.401092e+13
9.687775e+03, 9.583725e+13
9.697463e+03, 9.786008e+13
9.707160e+03, 9.384007e+13
9.716867e+03, 9.656150e+13
9.726584e+03, 9.476816e+13
9.736311e+03, 9.635629e+13
9.746047e+03, 9.395695e+13
9.755793e+03, 9.743279e+13
9.765549e+03, 9.751260e+13
9.775314e+03, 9.491417e+13
9.785090e+03, 9.306761e+13
9.794875e+03, 9.475703e+13
9.804670e+03, 9.705913e+13
9.814474e+03, 9.697831e+13
9.824289e+03, 9.674628e+13
9.834113e+03, 9.579965e+13
9.843947e+03, 9.668463e+13
9.853791e+03, 9.685465e+13
9.863645e+03, 9.609997e+13
9.873509e+03, 9.626752e+13
9.883382e+03, 9.677528e+13
9.893265e+03, 9.632192e+13
9.903159e+03, 9.160140e+13
9.913062e+03, 8.815430e+13
9.922975e+03, 8.930047e+13
9.932898e+03, 8.967796e+13
9.942831e+03, 9.314654e+13
9.952774e+03, 9.293451e+13
9.962726e+03, 9.244002e+13
9.972689e+03, 9.183444e+13
9.982662e+03, 9.207187e+13
9.992644e+03, 9.178858e+13
1.000264e+04, 9.133305e+13
1.001264e+04, 9.147466e+13
1.002265e+04, 9.284475e+13
1.003268e+04, 9.211264e+13
1.004271e+04, 9.239036e+13
1.005275e+04, 8.999215e+13
1.006280e+04, 8.850980e+13
1.007287e+04, 9.229569e+13
1.008294e+04, 9.267144e+13
1.009302e+04, 9.175244e+13
1.010311e+04, 9.305210e+13
1.011322e+04, 9.172575e+13
1.012333e+04, 9.153363e+13
1.013345e+04, 9.213544e+13
1.014359e+04, 9.075930e+13
1.015373e+04, 9.067261e+13
1.016389e+04, 9.063930e+13
1.017405e+04, 9.178282e+13
1.018422e+04, 9.026489e+13
1.019441e+04, 9.115904e+13
1.020460e+04, 9.159788e+13
1.021481e+04, 9.063119e+13
1.022502e+04, 8.976095e+13
1.023525e+04, 9.180823e+13
1.024548e+04, 9.212237e+13
1.025573e+04, 8.918701e+13
1.026598e+04, 8.769179e+13
1.027625e+04, 8.847884e+13
1.028652e+04, 8.821382e+13
1.029681e+04, 8.901221e+13
1.030711e+04, 8.941563e+13
1.031742e+04, 8.994098e+13
1.032773e+04, 8.904941e+13
1.033806e+04, 8.862478e+13
1.034840e+04, 8.312239e+13
1.035875e+04, 9.007200e+13
1.036911e+04, 8.957240e+13
1.037947e+04, 8.873279e+13
1.038985e+04, 8.982304e+13
1.040024e+04, 8.647237e+13
1.041064e+04, 9.005608e+13
1.042106e+04, 8.851132e+13
1.043148e+04, 8.755131e+13
1.044191e+04, 8.964458e+13
1.045235e+04, 8.953949e+13
1.046280e+04, 8.949601e+13
1.047326e+04, 8.710864e+13
1.048374e+04, 8.851339e+13
1.049422e+04, 8.749548e+13
1.050472e+04, 8.951578e+13
1.051522e+04, 8.754364e+13
1.052574e+04, 8.757413e+13
1.053626e+04, 8.898456e+13
1.054680e+04, 8.828636e+13
1.055734e+04, 8.743862e+13
1.056790e+04, 8.819678e+13
1.057847e+04, 8.808442e+13
1.058905e+04, 8.604886e+13
1.059964e+04, 8.855493e+13
1.061024e+04, 8.619734e+13
1.062085e+04, 8.785410e+13
1.063147e+04, 8.824767e+13
1.064210e+04, 8.780052e+13
1.065274e+04, 8.697983e+13
1.066339e+04, 8.524503e+13
1.067406e+04, 8.622775e+13
1.068473e+04, 8.598829e+13
1.069542e+04, 8.673113e+13
1.070611e+04, 8.620177e+13
1.071682e+04, 8.703834e+13
1.072753e+04, 8.512476e+13
1.073826e+04, 8.576217e+13
1.074900e+04, 8.567430e+13
1.075975e+04, 8.634943e+13
1.077051e+04, 8.655583e+13
1.078128e+04, 8.586527e+13
1.079206e+04, 8.539483e+13
1.080285e+04, 8.558794e+13
1.081366e+04, 8.375140e+13
1.082447e+04, 8.529998e+13
1.083529e+04, 8.407286e+13
1.084613e+04, 8.519174e+13
1.085698e+04, 8.519757e+13
1.086783e+04, 8.424565e+13
1.087870e+04, 8.584855e+13
1.088958e+04, 8.448338e+13
1.090047e+04, 8.588558e+13
1.091137e+04, 8.450207e+13
1.092228e+04, 8.449212e+13
1.093320e+04, 8.512787e+13
1.094414e+04, 8.582153e+13
1.095508e+04, 8.418552e+13
1.096604e+04, 8.380415e+13
1.097700e+04, 8.376223e+13
1.098798e+04, 8.405883e+13
1.099897e+04, 8.459015e+13
1.100997e+04, 8.473682e+13
1.102098e+04, 8.255366e+13
1.103200e+04, 8.412504e+13
1.104303e+04, 8.394765e+13
1.105407e+04, 8.343869e+13
1.106513e+04, 8.373012e+13
1.107619e+04, 8.416459e+13
1.108727e+04, 8.364688e+13
1.109835e+04, 8.346357e+13
1.110945e+04, 8.366538e+13
1.112056e+04, 8.207186e+13
1.113168e+04, 8.337089e+13
1.114281e+04, 8.371345e+13
1.115396e+04, 8.271523e+13
1.116511e+04, 8.267274e+13
1.117628e+04, 8.302353e+13
1.118745e+04, 8.308972e+13
1.119864e+04, 8.230146e+13
1.120984e+04, 8.255200e+13
1.122105e+04, 8.242575e+13
1.123227e+04, 8.282189e+13
1.124350e+04, 8.247342e+13
1.125474e+04, 7.723067e+13
1.126600e+04, 8.261414e+13
1.127727e+04, 8.161823e+13
1.128854e+04, 8.191960e+13
1.129983e+04, 8.080783e+13
1.131113e+04, 8.188317e+13
1.132244e+04, 8.199643e+13
1.133376e+04, 8.161815e+13
1.134510e+04, 8.140618e+13
1.135644e+04, 8.107075e+13
1.136780e+04, 8.142183e+13
1.137917e+04, 7.700845e+13
1.139055e+04, 7.933944e+13
1.140194e+04, 7.602621e+13
1.141334e+04, 8.027242e+13
1.142475e+04, 7.973061e+13
1.143618e+04, 8.093975e+13
1.144761e+04, 7.945282e+13
1.145906e+04, 8.048438e+13
1.147052e+04, 8.006150e+13
1.148199e+04, 7.977070e+13
1.149347e+04, 7.990257e+13
1.150497e+04, 7.999271e+13
1.151647e+04, 8.055300e+13
1.152799e+04, 8.050678e+13
1.153952e+04, 8.006727e+13
1.155106e+04, 7.973870e+13
1.156261e+04, 7.982743e+13
1.157417e+04, 7.986227e+13
1.158574e+04, 7.986832e+13
1.159733e+04, 7.799928e+13
1.160893e+04, 7.527842e+13
1.162054e+04, 7.951947e+13
1.163216e+04, 7.919545e+13
1.164379e+04, 7.696827e+13
1.165543e+04, 7.891725e+13
1.166709e+04, 7.907998e+13
1.167875e+04, 7.885840e+13
1.169043e+04, 7.542317e+13
1.170212e+04, 7.878313e+13
1.171383e+04, 7.863100e+13
1.172554e+04, 7.876450e+13
1.173726e+04, 7.837111e+13
1.174900e+04, 7.837282e+13
1.176075e+04, 7.832448e+13
1.177251e+04, 7.435863e+13
1.178428e+04, 7.558964e+13
1.179607e+04, 7.686262e+13
1.180786e+04, 7.789984e+13
1.181967e+04, 7.779072e+13
1.183149e+04, 7.255673e+13
1.184332e+04, 7.745154e+13
1.185517e+04, 7.724205e+13
1.186702e+04, 7.742775e+13
1.187889e+04, 7.700575e+13
1.189077e+04, 7.082197e+13
1.190266e+04, 7.713620e+13
1.191456e+04, 7.662248e+13
1.192648e+04, 7.700375e+13
1.193840e+04, 7.643850e+13
1.195034e+04, 7.535233e+13
1.196229e+04, 7.526946e+13
1.197425e+04, 7.061696e+13
1.198623e+04, 7.468010e+13
1.199821e+04, 7.500639e+13
1.201021e+04, 7.564153e+13
1.202222e+04, 7.562914e+13
1.203424e+04, 7.406498e+13
1.204628e+04, 7.532275e+13
1.205833e+04, 7.561957e+13
1.207038e+04, 7.504447e+13
1.208245e+04, 7.320888e+13
1.209454e+04, 7.484215e+13
1.210663e+04, 7.408011e+13
1.211874e+04, 7.473920e+13
1.213086e+04, 7.494309e+13
1.214299e+04, 7.493649e+13
1.215513e+04, 7.493301e+13
1.216729e+04, 7.467656e+13
1.217945e+04, 7.478111e+13
1.219163e+04, 7.428427e+13
1.220382e+04, 7.406062e+13
1.221603e+04, 7.419305e+13
1.222824e+04, 7.415566e+13
1.224047e+04, 7.388516e+13
1.225271e+04, 7.408600e+13
1.226497e+04, 7.398437e+13
1.227723e+04, 7.336340e+13
1.228951e+04, 7.379845e+13
1.230180e+04, 7.355895e+13
1.231410e+04, 7.343091e+13
1.232641e+04, 7.301531e+13
1.233874e+04, 7.317638e+13
1.235108e+04, 7.320971e+13
1.236343e+04, 7.288893e+13
1.237579e+04, 7.316314e+13
1.238817e+04, 7.256067e+13
1.240056e+04, 7.262079e+13
1.241296e+04, 7.192194e+13
1.242537e+04, 7.138889e+13
1.243780e+04, 7.054880e+13
1.245023e+04, 7.220789e+13
1.246268e+04, 7.205913e+13
1.247515e+04, 7.161645e+13
1.248762e+04, 7.199223e+13
1.250011e+04, 7.161293e+13
1.251261e+04, 7.162146e+13
1.252512e+04, 6.933120e+13
1.253765e+04, 7.143153e+13
1.255018e+04, 7.122923e+13
1.256273e+04, 7.089180e+13
1.257530e+04, 7.108964e+13
1.258787e+04, 7.122356e+13
1.260046e+04, 7.069768e+13
1.261306e+04, 7.066629e+13
1.262567e+04, 7.089077e+13
1.263830e+04, 7.007130e+13
1.265094e+04, 7.059128e+13
1.266359e+04, 7.054957e+13
1.267625e+04, 6.942224e+13
1.268893e+04, 6.962241e+13
1.270162e+04, 7.023661e+13
1.271432e+04, 7.020534e+13
1.272703e+04, 7.046933e+13
1.273976e+04, 6.939935e+13
1.275250e+04, 6.949237e+13
1.276525e+04, 6.991960e+13
1.277802e+04, 6.967736e+13
1.279080e+04, 6.981336e+13
1.280359e+04, 6.964669e+13
1.281639e+04, 6.819253e+13
1.282921e+04, 6.646531e+13
1.284204e+04, 6.915074e+13
1.285488e+04, 6.818908e+13
1.286773e+04, 6.882510e+13
1.288060e+04, 6.816408e+13
1.289348e+04, 6.838990e+13
1.290637e+04, 6.577520e+13
1.291928e+04, 6.754388e+13
1.293220e+04, 6.788013e+13
1.294513e+04, 6.775745e+13
1.295808e+04, 6.844255e+13
1.297104e+04, 6.829917e+13
1.298401e+04, 6.738277e+13
1.299699e+04, 6.781773e+13
1.300999e+04, 6.714497e+13
1.302300e+04, 6.805073e+13
1.303602e+04, 6.686216e+13
1.304906e+04, 6.770930e+13
1.306211e+04, 6.744059e+13
1.307517e+04, 6.709423e+13
1.308824e+04, 6.716686e+13
1.310133e+04, 6.711159e+13
1.311443e+04, 6.695272e+13
1.312755e+04, 6.108403e+13
1.314067e+04, 6.541831e+13
1.315382e+04, 6.235109e+13
1.316697e+04, 6.682706e+13
1.318014e+04, 6.684614e+13
1.319332e+04, 6.696499e+13
1.320651e+04, 6.605002e+13
1.321972e+04, 6.614437e+13
1.323294e+04, 6.648617e+13
1.324617e+04, 6.635281e+13
1.325941e+04, 6.584224e+13
1.327267e+04, 6.574651e+13
1.328595e+04, 6.483016e+13
1.329923e+04, 6.451858e+13
1.331253e+04, 6.544580e+13
1.332584e+04, 6.359364e+13
1.333917e+04, 6.551447e+13
1.335251e+04, 6.459476e+13
1.336586e+04, 6.507746e+13
1.337923e+04, 6.465762e+13
1.339261e+04, 6.430912e+13
1.340600e+04, 6.481157e+13
1.341941e+04, 6.420884e+13
1.343283e+04, 6.454532e+13
1.344626e+04, 6.452766e+13
1.345970e+04, 6.447353e+13
1.347316e+04, 6.426634e+13
1.348664e+04, 6.438584e+13
1.350012e+04, 6.347941e+13
1.351362e+04, 6.421701e+13
1.352714e+04, 6.403020e+13
1.354066e+04, 6.398512e+13
1.355421e+04, 6.352648e+13
1.356776e+04, 6.347512e+13
1.358133e+04, 6.361222e+13
1.359491e+04, 6.334182e+13
1.360850e+04, 6.293848e+13
1.362211e+04, 6.340295e+13
1.363573e+04, 6.207700e+13
1.364937e+04, 6.254005e+13
1.366302e+04, 6.322543e+13
1.367668e+04, 6.301208e+13
1.369036e+04, 6.273221e+13
1.370405e+04, 6.305882e+13
1.371775e+04, 6.305002e+13
1.373147e+04, 6.284070e+13
1.374520e+04, 6.298692e+13
1.375895e+04, 6.264387e+13
1.377271e+04, 6.262360e+13
1.378648e+04, 6.238868e+13
1.380027e+04, 6.278843e+13
1.381407e+04, 6.259231e+13
1.382788e+04, 6.228524e+13
1.384171e+04, 6.236293e+13
1.385555e+04, 6.131948e+13
1.386941e+04, 6.118155e+13
1.388327e+04, 6.166055e+13
1.389716e+04, 6.154191e+13
1.391106e+04, 5.755556e+13
1.392497e+04, 5.889117e+13
1.393889e+04, 5.903555e+13
1.395283e+04, 5.985190e+13
1.396678e+04, 6.092617e+13
1.398075e+04, 5.942061e+13
1.399473e+04, 5.968426e+13
1.400873e+04, 5.966619e+13
1.402273e+04, 6.043914e+13
1.403676e+04, 6.071079e+13
1.405079e+04, 6.003186e+13
1.406484e+04, 5.995207e+13
1.407891e+04, 6.036463e+13
1.409299e+04, 5.996861e+13
1.410708e+04, 5.992846e+13
1.412119e+04, 5.989221e+13
1.413531e+04, 5.925946e+13
1.414944e+04, 6.036080e+13
1.416359e+04, 5.969509e+13
1.417776e+04, 5.991346e+13
1.419194e+04, 5.920765e+13
1.420613e+04, 5.987193e+13
1.422033e+04, 5.941907e+13
1.423455e+04, 5.877267e+13
1.424879e+04, 5.924547e+13
1.426304e+04, 5.859160e+13
1.427730e+04, 5.918104e+13
1.429158e+04, 5.794783e+13
1.430587e+04, 5.900518e+13
1.432018e+04, 5.935513e+13
1.433450e+04, 5.916784e+13
1.434883e+04, 5.819469e+13
1.436318e+04, 5.845726e+13
1.437754e+04, 5.874362e+13
1.439192e+04, 5.882767e+13
1.440631e+04, 5.719640e+13
1.442072e+04, 5.860457e+13
1.443514e+04, 5.862513e+13
1.444957e+04, 5.788618e+13
1.446402e+04, 5.797371e+13
1.447849e+04, 5.870843e+13
1.449297e+04, 5.824331e+13
1.450746e+04, 5.786868e+13
1.452197e+04, 5.664041e+13
1.453649e+04, 5.842168e+13
1.455102e+04, 5.803182e+13
1.456558e+04, 5.588364e+13
1.458014e+04, 5.812032e+13
1.459472e+04, 5.803440e+13
1.460932e+04, 5.371326e+13
1.462393e+04, 5.454250e+13
1.463855e+04, 5.626194e+13
1.465319e+04, 5.583168e+13
1.466784e+04, 5.590538e+13
1.468251e+04, 5.610557e+13
1.469719e+04, 5.535213e+13
1.471189e+04, 5.557964e+13
1.472660e+04, 5.684441e+13
1.474133e+04, 5.635239e+13
1.475607e+04, 5.572221e+13
1.477082e+04, 5.564819e+13
1.478560e+04, 5.590337e+13
1.480038e+04, 5.505764e+13
1.481518e+04, 5.646196e+13
1.483000e+04, 5.572697e+13
1.484483e+04, 5.666409e+13
1.485967e+04, 5.608335e+13
1.487453e+04, 5.277563e+13
1.488941e+04, 5.244620e+13
1.490429e+04, 5.498087e+13
1.491920e+04, 5.663432e+13
1.493412e+04, 5.612812e+13
1.494905e+04, 5.630546e+13
1.496400e+04, 5.602275e+13
1.497897e+04, 5.623417e+13
1.499394e+04, 5.602064e+13
1.500894e+04, 5.457484e+13
1.502395e+04, 4.933218e+13
1.503897e+04, 5.041850e+13
1.505401e+04, 5.077438e+13
1.506906e+04, 5.521673e+13
1.508413e+04, 5.505139e+13
1.509922e+04, 5.588434e+13
1.511432e+04, 5.562121e+13
1.512943e+04, 5.428656e+13
1.514456e+04, 5.417357e+13
1.515970e+04, 5.456757e+13
1.517486e+04, 5.441322e+13
1.519004e+04, 5.518363e+13
1.520523e+04, 5.492886e+13
1.522043e+04, 5.523379e+13
1.523566e+04, 5.516063e+13
1.525089e+04, 5.524299e+13
1.526614e+04, 5.379493e+13
1.528141e+04, 5.338049e+13
1.529669e+04, 5.387742e+13
1.531199e+04, 5.556517e+13
1.532730e+04, 5.428398e+13
1.534263e+04, 5.383156e+13
1.535797e+04, 5.547404e+13
1.537333e+04, 5.271086e+13
1.538870e+04, 5.247915e+13
1.540409e+04, 5.194153e+13
1.541949e+04, 5.285128e+13
1.543491e+04, 5.231268e+13
1.545035e+04, 5.517518e+13
1.546580e+04, 5.419535e+13
1.548126e+04, 5.434588e+13
1.549674e+04, 5.399570e+13
1.551224e+04, 5.268581e+13
1.552775e+04, 5.497694e+13
1.554328e+04, 5.111019e+13
1.555882e+04, 5.270264e+13
1.557438e+04, 5.258506e+13
1.558996e+04, 5.335007e+13
1.560555e+04, 5.304957e+13
1.562115e+04, 5.295374e+13
1.563677e+04, 5.221176e+13
1.565241e+04, 5.249485e+13
1.566806e+04, 5.371217e+13
1.568373e+04, 5.313015e+13
1.569941e+04, 5.273627e+13
1.571511e+04, 5.268812e+13
1.573083e+04, 5.153862e+13
1.574656e+04, 4.899455e+13
1.576231e+04, 4.902191e+13
1.577807e+04, 4.838096e+13
1.579385e+04, 5.340033e+13
1.580964e+04, 5.359415e+13
1.582545e+04, 5.110999e+13
1.584128e+04, 5.192355e+13
1.585712e+04, 5.353110e+13
1.587297e+04, 5.246363e+13
1.588885e+04, 4.867537e+13
1.590474e+04, 4.903935e+13
1.592064e+04, 5.088275e+13
1.593656e+04, 5.280631e+13
1.595250e+04, 5.316846e+13
1.596845e+04, 5.179230e+13
1.598442e+04, 5.217370e+13
1.600040e+04, 5.340362e+13
1.601640e+04, 5.172266e+13
1.603242e+04, 5.306460e+13
1.604845e+04, 5.045820e+13
1.606450e+04, 4.995597e+13
1.608057e+04, 5.041240e+13
1.609665e+04, 5.258869e+13
1.611274e+04, 5.194535e+13
1.612886e+04, 5.157600e+13
1.614498e+04, 5.171214e+13
1.616113e+04, 4.748087e+13
1.617729e+04, 5.165717e+13
1.619347e+04, 4.846467e+13
1.620966e+04, 4.774190e+13
1.622587e+04, 4.946436e+13
1.624210e+04, 4.964754e+13
1.625834e+04, 4.901603e+13
1.627460e+04, 5.158296e+13
1.629087e+04, 5.214260e+13
1.630716e+04, 5.141327e+13
1.632347e+04, 4.940537e+13
1.633979e+04, 5.119354e+13
1.635613e+04, 4.949365e+13
1.637249e+04, 4.970014e+13
1.638886e+04, 4.968684e+13
1.640525e+04, 4.893496e+13
1.642166e+04, 5.100577e+13
1.643808e+04, 5.021724e+13
1.645452e+04, 4.644620e+13
1.647097e+04, 4.974565e+13
1.648744e+04, 4.917230e+13
1.650393e+04, 5.039531e+13
1.652043e+04, 4.882382e+13
1.653695e+04, 4.766233e+13
1.655349e+04, 4.979161e+13
1.657004e+04, 4.960385e+13
1.658661e+04, 4.896252e+13
1.660320e+04, 4.954962e+13
1.661980e+04, 4.882865e+13
1.663642e+04, 4.891038e+13
1.665306e+04, 4.678611e+13
1.666971e+04, 4.821747e+13
1.668638e+04, 4.813638e+13
1.670307e+04, 4.820360e+13
1.671977e+04, 4.348256e+13
1.673649e+04, 4.724487e+13
1.675323e+04, 4.301165e+13
1.676998e+04, 4.622855e+13
1.678675e+04, 4.827993e+13
1.680354e+04, 4.833301e+13
1.682034e+04, 4.805889e+13
1.683716e+04, 4.768872e+13
1.685400e+04, 4.741702e+13
1.687085e+04, 4.565059e+13
1.688772e+04, 4.582021e+13
1.690461e+04, 4.426523e+13
1.692152e+04, 4.667582e+13
1.693844e+04, 4.646394e+13
1.695538e+04, 4.647629e+13
1.697233e+04, 4.619309e+13
1.698930e+04, 4.671743e+13
1.700629e+04, 4.529701e+13
1.702330e+04, 4.586421e+13
1.704032e+04, 4.630717e+13
1.705736e+04, 4.503184e+13
1.707442e+04, 4.424704e+13
1.709149e+04, 4.509317e+13
1.710859e+04, 3.822012e+13
1.712569e+04, 4.417263e+13
1.714282e+04, 4.525874e+13
1.715996e+04, 4.484141e+13
1.717712e+04, 4.415899e+13
1.719430e+04, 4.431244e+13
1.721149e+04, 4.377750e+13
1.722871e+04, 4.327969e+13
1.724593e+04, 4.292839e+13
1.726318e+04, 4.412537e+13
1.728044e+04, 4.380729e+13
1.729772e+04, 4.382071e+13
1.731502e+04, 4.188110e+13
1.733234e+04, 4.191444e+13
1.734967e+04, 4.176811e+13
1.736702e+04, 4.333914e+13
1.738439e+04, 4.249520e+13
1.740177e+04, 4.283718e+13
1.741917e+04, 4.164517e+13
1.743659e+04, 4.189206e+13
1.745403e+04, 4.257496e+13
1.747148e+04, 4.216506e+13
1.748895e+04, 4.235807e+13
1.750644e+04, 4.158672e+13
1.752395e+04, 4.154585e+13
1.754147e+04, 4.041894e+13
1.755901e+04, 4.078242e+13
1.757657e+04, 4.138926e+13
1.759415e+04, 4.040208e+13
1.761174e+04, 3.994635e+13
1.762936e+04, 4.018091e+13
1.764699e+04, 4.110293e+13
1.766463e+04, 4.048706e+13
1.768230e+04, 3.996776e+13
1.769998e+04, 4.030872e+13
1.771768e+04, 3.936983e+13
1.773540e+04, 3.990452e+13
1.775313e+04, 3.976274e+13
1.777089e+04, 3.830759e+13
1.778866e+04, 3.946150e+13
1.780644e+04, 3.975002e+13
1.782425e+04, 3.785290e+13
1.784208e+04, 3.855893e+13
1.785992e+04, 3.784683e+13
1.787778e+04, 3.892408e+13
1.789566e+04, 3.913520e+13
1.791355e+04, 3.851291e+13
1.793146e+04, 3.833205e+13
1.794940e+04, 3.809266e+13
1.796735e+04, 3.834828e+13
1.798531e+04, 3.799724e+13
1.800330e+04, 3.701572e+13
1.802130e+04, 3.666932e+13
1.803932e+04, 3.609953e+13
1.805736e+04, 3.707387e+13
1.807542e+04, 3.739580e+13
1.809349e+04, 3.716800e+13
1.811159e+04, 3.672178e+13
1.812970e+04, 3.684450e+13
1.814783e+04, 3.673375e+13
1.816598e+04, 3.710978e+13
1.818414e+04, 3.687438e+13
1.820233e+04, 3.605435e+13
1.822053e+04, 3.594169e+13
1.823875e+04, 3.700880e+13
1.825699e+04, 3.602924e+13
1.827525e+04, 3.501387e+13
1.829352e+04, 3.509733e+13
1.831181e+04, 3.601563e+13
1.833013e+04, 3.596703e+13
1.834846e+04, 3.553402e+13
1.836681e+04, 3.484085e+13
1.838517e+04, 3.523973e+13
1.840356e+04, 3.427985e+13
1.842196e+04, 3.392516e+13
1.844038e+04, 3.443539e+13
1.845882e+04, 3.389590e+13
1.847728e+04, 3.149031e+13
1.849576e+04, 3.428997e+13
1.851425e+04, 3.401452e+13
1.853277e+04, 3.345486e+13
1.855130e+04, 3.328068e+13
1.856985e+04, 3.328557e+13
1.858842e+04, 3.321224e+13
1.860701e+04, 3.386012e+13
1.862562e+04, 3.367494e+13
1.864424e+04, 3.357968e+13
1.866289e+04, 3.300723e+13
1.868155e+04, 3.354498e+13
1.870023e+04, 3.363671e+13
1.871893e+04, 3.285279e+13
1.873765e+04, 3.249277e+13
1.875639e+04, 3.319212e+13
1.877515e+04, 3.236866e+13
1.879392e+04, 3.293608e+13
1.881272e+04, 3.315260e+13
1.883153e+04, 3.312129e+13
1.885036e+04, 3.162082e+13
1.886921e+04, 3.177931e+13
1.888808e+04, 3.234905e+13
1.890697e+04, 3.213946e+13
1.892587e+04, 3.114463e+13
1.894480e+04, 3.211939e+13
1.896374e+04, 3.209593e+13
1.898271e+04, 3.111963e+13
1.900169e+04, 3.196960e+13
1.902069e+04, 3.195871e+13
1.903971e+04, 3.142996e+13
1.905875e+04, 3.034804e+13
1.907781e+04, 3.141076e+13
1.909689e+04, 3.110504e+13
1.911599e+04, 3.063774e+13
1.913510e+04, 3.159820e+13
1.915424e+04, 3.112267e+13
1.917339e+04, 3.112984e+13
1.919257e+04, 3.110681e+13
1.921176e+04, 3.101867e+13
1.923097e+04, 3.101570e+13
1.925020e+04, 3.091086e+13
1.926945e+04, 3.043463e+13
1.928872e+04, 3.016548e+13
1.930801e+04, 2.511918e+13
1.932732e+04, 2.833746e+13
1.934664e+04, 2.942361e+13
1.936599e+04, 3.022178e+13
1.938536e+04, 2.994627e+13
1.940474e+04, 2.953274e+13
1.942415e+04, 2.948672e+13
1.944357e+04, 2.733625e+13
1.946301e+04, 2.259536e+13
1.948248e+04, 2.833194e+13
1.950196e+04, 2.600010e+13
1.952146e+04, 2.681886e+13
1.954098e+04, 2.907937e+13
1.956052e+04, 2.921465e+13
1.958009e+04, 2.943917e+13
1.959967e+04, 2.910414e+13
1.961927e+04, 2.794453e+13
1.963888e+04, 2.800564e+13
1.965852e+04, 2.908457e+13
1.967818e+04, 2.896448e+13
1.969786e+04, 2.879730e+13
1.971756e+04, 2.834364e+13
1.973728e+04, 2.761606e+13
1.975701e+04, 2.687687e+13
1.977677e+04, 2.061348e+13
1.979655e+04, 2.473135e+13
1.981634e+04, 2.596232e+13
1.983616e+04, 2.763834e+13
1.985600e+04, 2.411461e+13
1.987585e+04, 2.420009e+13
1.989573e+04, 2.712482e+13
1.991562e+04, 2.605286e+13
1.993554e+04, 2.544508e+13
1.995547e+04, 2.689910e+13
1.997543e+04, 2.623613e+13
1.999541e+04, 2.728563e+13
2.001540e+04, 2.712617e+13
2.003542e+04, 2.692890e+13
2.005545e+04, 2.713010e+13
2.007551e+04, 2.720508e+13
2.009558e+04, 2.674814e+13
2.011568e+04, 2.677276e+13
2.013579e+04, 2.664612e+13
2.015593e+04, 2.666137e+13
2.017609e+04, 2.640167e+13
2.019626e+04, 2.608061e+13
2.021646e+04, 2.633222e+13
2.023667e+04, 2.627582e+13
2.025691e+04, 2.627358e+13
2.027717e+04, 2.579950e+13
2.029744e+04, 2.558415e+13
2.031774e+04, 2.602433e+13
2.033806e+04, 2.593479e+13
2.035840e+04, 2.572254e+13
2.037876e+04, 2.581675e+13
2.039914e+04, 2.572051e+13
2.041953e+04, 2.570104e+13
2.043995e+04, 2.552590e+13
2.046039e+04, 2.545322e+13
2.048085e+04, 2.509067e+13
2.050134e+04, 2.501709e+13
2.052184e+04, 2.504234e+13
2.054236e+04, 2.477362e+13
2.056290e+04, 2.477579e+13
2.058346e+04, 2.487774e+13
2.060405e+04, 2.483622e+13
2.062465e+04, 2.473271e+13
2.064528e+04, 2.425316e+13
2.066592e+04, 2.466474e+13
2.068659e+04, 2.442705e+13
2.070727e+04, 2.446272e+13
2.072798e+04, 2.420873e+13
2.074871e+04, 2.428946e+13
2.076946e+04, 2.432632e+13
2.079023e+04, 2.426666e+13
2.081102e+04, 2.397114e+13
2.083183e+04, 2.399040e+13
2.085266e+04, 2.357493e+13
2.087351e+04, 2.371816e+13
2.089439e+04, 2.370855e+13
2.091528e+04, 2.373558e+13
2.093620e+04, 2.362383e+13
2.095713e+04, 2.344608e+13
2.097809e+04, 2.334820e+13
2.099907e+04, 2.339459e+13
2.102007e+04, 2.327179e+13
2.104109e+04, 2.339261e+13
2.106213e+04, 2.271015e+13
2.108319e+04, 2.298814e+13
2.110427e+04, 2.249422e+13
2.112538e+04, 2.292966e+13
2.114650e+04, 2.301296e+13
2.116765e+04, 2.191517e+13
2.118882e+04, 2.267668e+13
2.121001e+04, 2.242505e+13
2.123122e+04, 2.265936e+13
2.125245e+04, 2.248707e+13
2.127370e+04, 2.251100e+13
2.129497e+04, 2.245545e+13
2.131627e+04, 2.242860e+13
2.133758e+04, 2.235407e+13
2.135892e+04, 2.208290e+13
2.138028e+04, 2.209805e+13
2.140166e+04, 2.202186e+13
2.142306e+04, 2.207873e+13
2.144449e+04, 2.215069e+13
2.146593e+04, 2.186073e+13
2.148740e+04, 2.185772e+13
2.150888e+04, 2.184438e+13
2.153039e+04, 2.159366e+13
2.155192e+04, 2.165746e+13
2.157347e+04, 2.161377e+13
2.159505e+04, 2.149920e+13
2.161664e+04, 2.160780e+13
2.163826e+04, 2.131327e+13
2.165990e+04, 2.138593e+13
2.168156e+04, 2.135550e+13
2.170324e+04, 2.130871e+13
2.172494e+04, 2.125349e+13
2.174667e+04, 2.116569e+13
2.176841e+04, 2.103950e+13
2.179018e+04, 2.050058e+13
2.181197e+04, 2.079120e+13
2.183378e+04, 2.073919e+13
2.185562e+04, 2.080047e+13
2.187747e+04, 2.064610e+13
2.189935e+04, 2.030063e+13
2.192125e+04, 2.068707e+13
2.194317e+04, 2.060505e+13
2.196512e+04, 2.050572e+13
2.198708e+04, 2.035315e+13
2.200907e+04, 2.017071e+13
2.203108e+04, 2.023976e+13
2.205311e+04, 1.903005e+13
2.207516e+04, 1.961077e+13
2.209724e+04, 1.918023e+13
2.211933e+04, 2.002142e+13
2.214145e+04, 2.002023e+13
2.216359e+04, 2.000600e+13
2.218576e+04, 1.993472e+13
2.220794e+04, 1.963595e+13
2.223015e+04, 1.961237e+13
2.225238e+04, 1.960454e+13
2.227463e+04, 1.914656e+13
2.229691e+04, 1.954756e+13
2.231921e+04, 1.940789e+13
2.234152e+04, 1.939373e+13
2.236387e+04, 1.944165e+13
2.238623e+04, 1.910551e+13
2.240862e+04, 1.911928e+13
2.243102e+04, 1.923582e+13
2.245346e+04, 1.912093e+13
2.247591e+04, 1.899920e+13
2.249839e+04, 1.906422e+13
2.252088e+04, 1.903102e+13
2.254340e+04, 1.892142e+13
2.256595e+04, 1.891452e+13
2.258851e+04, 1.881351e+13
2.261110e+04, 1.790859e+13
2.263371e+04, 1.726684e+13
2.265635e+04, 1.728191e+13
2.267900e+04, 1.847750e+13
2.270168e+04, 1.839471e+13
2.272438e+04, 1.843348e+13
2.274711e+04, 1.842503e+13
2.276986e+04, 1.835564e+13
2.279263e+04, 1.827769e+13
2.281542e+04, 1.796139e+13
2.283823e+04, 1.789772e+13
2.286107e+04, 1.806939e+13
2.288393e+04, 1.798146e+13
2.290682e+04, 1.800955e+13
2.292972e+04, 1.689835e+13
2.295265e+04, 1.625171e+13
2.297561e+04, 1.664488e+13
2.299858e+04, 1.704041e+13
2.302158e+04, 1.716352e+13
2.304460e+04, 1.716978e+13
2.306765e+04, 1.669120e+13
2.309071e+04, 1.709790e+13
2.311380e+04, 1.703380e+13
2.313692e+04, 1.710266e+13
2.316006e+04, 1.690899e+13
2.318322e+04, 1.692736e+13
2.320640e+04, 1.701144e+13
2.322961e+04, 1.500335e+13
2.325283e+04, 1.562110e+13
2.327609e+04, 1.602837e+13
2.329936e+04, 1.607240e+13
2.332266e+04, 1.623797e+13
2.334599e+04, 1.573626e+13
2.336933e+04, 1.597394e+13
2.339270e+04, 1.550150e+13
2.341609e+04, 1.620286e+13
2.343951e+04, 1.614470e+13
2.346295e+04, 1.613814e+13
2.348641e+04, 1.604655e+13
2.350990e+04, 1.612895e+13
2.353341e+04, 1.390117e+13
2.355694e+04, 1.514892e+13
2.358050e+04, 1.520670e+13
2.360408e+04, 1.533170e+13
2.362768e+04, 1.540147e+13
2.365131e+04, 1.554520e+13
2.367496e+04, 1.545747e+13
2.369864e+04, 1.533105e+13
2.372234e+04, 1.535046e+13
2.374606e+04, 1.533984e+13
2.376980e+04, 1.550066e+13
2.379357e+04, 1.533254e+13
2.381737e+04, 1.512690e+13
2.384119e+04, 1.338968e+13
2.386503e+04, 1.424072e+13
2.388889e+04, 1.455977e+13
2.391278e+04, 1.461642e+13
2.393669e+04, 1.467533e+13
2.396063e+04, 1.457623e+13
2.398459e+04, 1.467530e+13
2.400858e+04, 1.463930e+13
2.403258e+04, 1.452580e+13
2.405662e+04, 1.466186e+13
2.408067e+04, 1.436763e+13
2.410475e+04, 1.441288e+13
2.412886e+04, 1.432842e+13
2.415299e+04, 1.315039e+13
2.417714e+04, 1.377595e+13
2.420132e+04, 1.383858e+13
2.422552e+04, 1.375880e+13
2.424974e+04, 1.400060e+13
2.427399e+04, 1.376171e+13
2.429827e+04, 1.392916e+13
2.432257e+04, 1.386274e+13
2.434689e+04, 1.366170e+13
2.437124e+04, 1.356063e+13
2.439561e+04, 1.392163e+13
2.442000e+04, 1.356584e+13
2.444442e+04, 1.356324e+13
2.446887e+04, 1.264420e+13
2.449334e+04, 1.308450e+13
2.451783e+04, 1.312463e+13
2.454235e+04, 1.282398e+13
2.456689e+04, 1.306007e+13
2.459146e+04, 1.324909e+13
2.461605e+04, 1.265729e+13
2.464066e+04, 1.308855e+13
2.466530e+04, 1.297336e+13
2.468997e+04, 1.295193e+13
2.471466e+04, 1.297851e+13
2.473937e+04, 1.261246e+13
2.476411e+04, 1.280741e+13
2.478888e+04, 1.235100e+13
2.481367e+04, 1.191837e+13
2.483848e+04, 1.236919e+13
2.486332e+04, 1.089977e+13
2.488818e+04, 1.105233e+13
2.491307e+04, 1.110751e+13
2.493798e+04, 1.123101e+13
2.496292e+04, 1.134302e+13
2.498788e+04, 1.112528e+13
2.501287e+04, 1.132650e+13
2.503788e+04, 1.106799e+13
2.506292e+04, 1.106241e+13
2.508799e+04, 1.135981e+13
2.511307e+04, 1.106865e+13
2.513819e+04, 1.099827e+13
2.516332e+04, 1.106180e+13
2.518849e+04, 1.106043e+13
2.521368e+04, 1.120328e+13
2.523889e+04, 1.057350e+13
2.526413e+04, 1.050624e+13
2.528939e+04, 1.063823e+13
2.531468e+04, 1.107894e+13
2.534000e+04, 1.082106e+13
2.536534e+04, 1.069833e+13
2.539070e+04, 1.095342e+13
2.541609e+04, 1.077326e+13
2.544151e+04, 1.088379e+13
2.546695e+04, 1.074214e+13
2.549242e+04, 1.091114e+13
2.551791e+04, 1.062103e+13
2.554343e+04, 1.087722e+13
2.556897e+04, 1.088957e+13
2.559454e+04, 1.095045e+13
2.562014e+04, 1.059725e+13
2.564576e+04, 1.063542e+13
2.567140e+04, 1.089093e+13
2.569707e+04, 1.065194e+13
2.572277e+04, 1.107062e+13
2.574849e+04, 1.064990e+13
2.577424e+04, 1.053367e+13
2.580002e+04, 1.085884e+13
2.582582e+04, 1.062127e+13
2.585164e+04, 1.088702e+13
2.587749e+04, 1.089109e+13
2.590337e+04, 1.078703e+13
2.592927e+04, 1.099783e+13
2.595520e+04, 1.060169e+13
2.598116e+04, 1.077368e+13
2.600714e+04, 1.091444e+13
2.603315e+04, 1.075263e+13
2.605918e+04, 1.068618e+13
2.608524e+04, 1.039859e+13
2.611132e+04, 1.097762e+13
2.613744e+04, 1.084168e+13
2.616357e+04, 1.079301e+13
2.618974e+04, 1.012142e+13
2.621593e+04, 9.826312e+12
2.624214e+04, 9.923815e+12
2.626838e+04, 1.024931e+13
2.629465e+04, 1.016018e+13
2.632095e+04, 1.030474e+13
2.634727e+04, 1.006364e+13
2.637362e+04, 1.005770e+13
2.639999e+04, 9.677054e+12
2.642639e+04, 9.952770e+12
2.645282e+04, 1.007861e+13
2.647927e+04, 1.011348e+13
2.650575e+04, 9.829673e+12
2.653225e+04, 9.587432e+12
2.655879e+04, 9.337495e+12
2.658534e+04, 9.787645e+12
2.661193e+04, 9.542092e+12
2.663854e+04, 9.702710e+12
2.666518e+04, 9.750304e+12
2.669185e+04, 9.852405e+12
2.671854e+04, 9.737041e+12
2.674526e+04, 9.755160e+12
2.677200e+04, 9.526090e+12
2.679877e+04, 9.690041e+12
2.682557e+04, 9.525292e+12
2.685240e+04, 9.631729e+12
2.687925e+04, 9.761484e+12
2.690613e+04, 9.617317e+12
2.693303e+04, 9.470248e+12
2.695997e+04, 9.217771e+12
2.698693e+04, 9.659824e+12
2.701391e+04, 9.392515e+12
2.704093e+04, 9.207219e+12
2.706797e+04, 9.333903e+12
2.709504e+04, 9.564989e+12
2.712213e+04, 9.243052e+12
2.714925e+04, 9.245750e+12
2.717640e+04, 9.132089e+12
2.720358e+04, 9.404881e+12
2.723078e+04, 9.292012e+12
2.725801e+04, 9.312417e+12
2.728527e+04, 8.988172e+12
2.731256e+04, 9.258414e+12
2.733987e+04, 9.270029e+12
2.736721e+04, 8.944102e+12
2.739458e+04, 8.821415e+12
2.742197e+04, 9.199448e+12
2.744939e+04, 9.100073e+12
2.747684e+04, 9.016990e+12
2.750432e+04, 8.872253e+12
2.753182e+04, 8.957884e+12
2.755936e+04, 8.701706e+12
2.758692e+04, 8.979741e+12
2.761450e+04, 8.943319e+12
2.764212e+04, 8.892235e+12
2.766976e+04, 8.374424e+12
2.769743e+04, 8.595882e+12
2.772513e+04, 8.685362e+12
2.775285e+04, 8.777519e+12
2.778060e+04, 8.668264e+12
2.780839e+04, 8.602585e+12
2.783619e+04, 8.582323e+12
2.786403e+04, 8.252154e+12
2.789189e+04, 8.265050e+12
2.791979e+04, 8.019495e+12
2.794771e+04, 8.369527e+12
2.797565e+04, 8.279344e+12
2.800363e+04, 8.282838e+12
2.803163e+04, 7.721265e+12
2.805966e+04, 7.947909e+12
2.808772e+04, 8.132247e+12
2.811581e+04, 8.075250e+12
2.814393e+04, 8.161299e+12
2.817207e+04, 8.024029e+12
2.820024e+04, 7.744740e+12
2.822844e+04, 8.066064e+12
2.825667e+04, 7.993427e+12
2.828493e+04, 8.047791e+12
2.831321e+04, 8.056647e+12
2.834153e+04, 7.977318e+12
2.836987e+04, 7.672471e+12
2.839824e+04, 8.017090e+12
2.842664e+04, 7.928078e+12
2.845506e+04, 7.995898e+12
2.848352e+04, 7.841169e+12
2.851200e+04, 7.731177e+12
2.854051e+04, 7.520654e+12
2.856905e+04, 7.665683e+12
2.859762e+04, 8.031603e+12
2.862622e+04, 7.819440e+12
2.865485e+04, 7.719856e+12
2.868350e+04, 7.582311e+12
2.871219e+04, 7.475083e+12
2.874090e+04, 7.454051e+12
2.876964e+04, 7.834300e+12
2.879841e+04, 7.782468e+12
2.882721e+04, 7.744136e+12
2.885603e+04, 7.402021e+12
2.888489e+04, 7.382183e+12
2.891377e+04, 7.260303e+12
2.894269e+04, 7.653272e+12
2.897163e+04, 7.666740e+12
2.900060e+04, 7.160022e+12
2.902960e+04, 7.400698e+12
2.905863e+04, 7.465081e+12
2.908769e+04, 6.938481e+12
2.911678e+04, 7.337001e+12
2.914590e+04, 7.468051e+12
2.917504e+04, 7.360486e+12
2.920422e+04, 7.259141e+12
2.923342e+04, 6.932606e+12
2.926265e+04, 7.139574e+12
2.929192e+04, 6.700937e+12
2.932121e+04, 7.269611e+12
2.935053e+04, 6.949589e+12
2.937988e+04, 6.988153e+12
2.940926e+04, 6.891529e+12
2.943867e+04, 6.736728e+12
2.946811e+04, 6.763412e+12
2.949758e+04, 6.670626e+12
2.952707e+04, 7.033268e+12
2.955660e+04, 6.747678e+12
2.958616e+04, 6.970269e+12
2.961574e+04, 6.561811e+12
2.964536e+04, 6.803542e+12
2.967501e+04, 6.621153e+12
2.970468e+04, 6.494741e+12
2.973439e+04, 6.836426e+12
2.976412e+04, 6.860847e+12
2.979388e+04, 6.738611e+12
2.982368e+04, 6.614676e+12
2.985350e+04, 6.725835e+12
2.988335e+04, 6.284673e+12
2.991324e+04, 6.567611e+12
2.994315e+04, 6.752428e+12
2.997309e+04, 6.690030e+12
3.000307e+04, 6.402099e+12
3.003307e+04, 6.473749e+12
3.006310e+04, 6.420780e+12
3.009317e+04, 5.931952e+12
3.012326e+04, 6.520438e+12
3.015338e+04, 6.665845e+12
3.018354e+04, 6.534772e+12
3.021372e+04, 6.343163e+12
3.024393e+04, 6.383394e+12
3.027418e+04, 6.233108e+12
3.030445e+04, 6.257450e+12
3.033476e+04, 6.468849e+12
3.036509e+04, 6.373852e+12
3.039546e+04, 6.375628e+12
3.042585e+04, 5.955802e+12
3.045628e+04, 6.193071e+12
3.048673e+04, 5.853040e+12
3.051722e+04, 6.085017e+12
3.054774e+04, 6.348294e+12
3.057829e+04, 6.218170e+12
3.060886e+04, 6.238777e+12
3.063947e+04, 6.136004e+12
3.067011e+04, 6.098727e+12
3.070078e+04, 6.015022e+12
3.073148e+04, 5.934074e+12
3.076221e+04, 6.109056e+12
3.079298e+04, 6.048955e+12
3.082377e+04, 6.046580e+12
3.085459e+04, 5.665613e+12
3.088545e+04, 5.842056e+12
3.091633e+04, 5.649728e+12
3.094725e+04, 5.842748e+12
3.097820e+04, 5.854300e+12
3.100918e+04, 6.046410e+12
3.104018e+04, 5.999430e+12
3.107122e+04, 5.715591e+12
3.110230e+04, 5.831200e+12
3.113340e+04, 5.759867e+12
3.116453e+04, 5.549036e+12
3.119570e+04, 5.673645e+12
3.122689e+04, 5.800069e+12
3.125812e+04, 5.809259e+12
3.128938e+04, 5.619106e+12
3.132067e+04, 5.342960e+12
3.135199e+04, 5.402336e+12
3.138334e+04, 5.685593e+12
3.141472e+04, 5.673290e+12
3.144614e+04, 5.574249e+12
3.147758e+04, 5.557271e+12
3.150906e+04, 5.617707e+12
3.154057e+04, 5.547286e+12
3.157211e+04, 5.329994e+12
3.160368e+04, 5.593017e+12
3.163529e+04, 5.555206e+12
3.166692e+04, 5.506086e+12
3.169859e+04, 5.540910e+12
3.173029e+04, 5.469514e+12
3.176202e+04, 5.458852e+12
3.179378e+04, 5.092581e+12
3.182557e+04, 5.207571e+12
3.185740e+04, 5.440929e+12
3.188926e+04, 5.376429e+12
3.192115e+04, 5.295475e+12
3.195307e+04, 5.368354e+12
3.198502e+04, 5.195993e+12
3.201700e+04, 5.193752e+12
3.204902e+04, 5.321171e+12
3.208107e+04, 5.373085e+12
3.211315e+04, 5.353977e+12
3.214526e+04, 5.301034e+12
3.217741e+04, 5.218262e+12
3.220959e+04, 5.211259e+12
3.224180e+04, 5.233604e+12
3.227404e+04, 5.041491e+12
3.230631e+04, 5.116174e+12
3.233862e+04, 5.003244e+12
3.237096e+04, 5.032811e+12
3.240333e+04, 5.050546e+12
3.243573e+04, 5.009236e+12
3.246817e+04, 5.046438e+12
3.250064e+04, 5.092585e+12
3.253314e+04, 5.069305e+12
3.256567e+04, 5.126068e+12
3.259824e+04, 5.107095e+12
3.263083e+04, 5.021985e+12
3.266346e+04, 5.008777e+12
3.269613e+04, 4.958540e+12
3.272882e+04, 5.044307e+12
3.276155e+04, 4.889475e+12
3.279431e+04, 4.947540e+12
3.282711e+04, 4.729549e+12
3.285994e+04, 4.634096e+12
3.289280e+04, 4.867123e+12
3.292569e+04, 4.726840e+12
3.295861e+04, 4.877891e+12
3.299157e+04, 4.871919e+12
3.302456e+04, 4.903910e+12
3.305759e+04, 4.858807e+12
3.309065e+04, 4.754665e+12
3.312374e+04, 4.829440e+12
3.315686e+04, 4.720471e+12
3.319002e+04, 4.609860e+12
3.322321e+04, 4.776294e+12
3.325643e+04, 4.718126e+12
3.328969e+04, 4.803181e+12
3.332298e+04, 4.731827e+12
3.335630e+04, 4.590622e+12
3.338966e+04, 4.297496e+12
3.342305e+04, 4.489069e+12
3.345647e+04, 4.584203e+12
3.348993e+04, 4.646994e+12
3.352342e+04, 4.657111e+12
3.355694e+04, 4.521958e+12
3.359050e+04, 4.611570e+12
3.362409e+04, 4.613586e+12
3.365771e+04, 4.500736e+12
3.369137e+04, 4.573069e+12
3.372506e+04, 4.566936e+12
3.375878e+04, 4.503667e+12
3.379254e+04, 4.525450e+12
3.382634e+04, 4.503517e+12
3.386016e+04, 4.500817e+12
3.389402e+04, 4.508794e+12
3.392792e+04, 4.289047e+12
3.396184e+04, 3.997114e+12
3.399581e+04, 4.331359e+12
3.402980e+04, 4.423795e+12
3.406383e+04, 4.337006e+12
3.409790e+04, 4.321228e+12
3.413199e+04, 4.286087e+12
3.416613e+04, 4.306757e+12
3.420029e+04, 4.347573e+12
3.423449e+04, 4.354836e+12
3.426873e+04, 4.346807e+12
3.430300e+04, 4.324953e+12
3.433730e+04, 4.317359e+12
3.437164e+04, 4.300006e+12
3.440601e+04, 4.253856e+12
3.444041e+04, 4.235675e+12
3.447485e+04, 4.178653e+12
3.450933e+04, 4.086867e+12
3.454384e+04, 4.056273e+12
3.457838e+04, 3.929737e+12
3.461296e+04, 4.099914e+12
3.464757e+04, 4.089953e+12
3.468222e+04, 4.190869e+12
3.471690e+04, 4.169711e+12
3.475162e+04, 4.144722e+12
3.478637e+04, 4.144423e+12
3.482116e+04, 4.103019e+12
3.485598e+04, 4.101554e+12
3.489083e+04, 4.060679e+12
3.492573e+04, 4.050652e+12
3.496065e+04, 4.081822e+12
3.499561e+04, 4.003906e+12
3.503061e+04, 4.049097e+12
3.506564e+04, 3.951891e+12
3.510070e+04, 3.867087e+12
3.513580e+04, 3.844636e+12
3.517094e+04, 3.932299e+12
3.520611e+04, 3.675227e+12
3.524132e+04, 3.836645e+12
3.527656e+04, 3.939072e+12
3.531184e+04, 3.949856e+12
3.534715e+04, 3.925232e+12
3.538249e+04, 3.848445e+12
3.541788e+04, 3.880355e+12
3.545329e+04, 3.846998e+12
3.548875e+04, 3.817936e+12
3.552424e+04, 3.830080e+12
3.555976e+04, 3.829588e+12
3.559532e+04, 3.816629e+12
3.563092e+04, 3.821145e+12
3.566655e+04, 3.797565e+12
3.570221e+04, 3.568215e+12
3.573792e+04, 3.625550e+12
3.577365e+04, 3.667970e+12
3.580943e+04, 3.746009e+12
3.584524e+04, 3.729976e+12
3.588108e+04, 3.501135e+12
3.591696e+04, 3.601870e+12
3.595288e+04, 3.699450e+12
3.598883e+04, 3.644585e+12
3.602482e+04, 3.651653e+12
3.606085e+04, 3.667701e+12
3.609691e+04, 3.657643e+12
3.613300e+04, 3.635830e+12
3.616914e+04, 3.617094e+12
3.620531e+04, 3.613072e+12
3.624151e+04, 3.598215e+12
3.627775e+04, 3.594127e+12
3.631403e+04, 3.499372e+12
3.635035e+04, 3.435477e+12
3.638670e+04, 3.329732e+12
3.642308e+04, 3.534027e+12
3.645951e+04, 3.512375e+12
3.649596e+04, 3.487633e+12
3.653246e+04, 3.482140e+12
3.656899e+04, 3.404020e+12
3.660556e+04, 3.361048e+12
3.664217e+04, 3.387024e+12
3.667881e+04, 3.452889e+12
3.671549e+04, 3.450298e+12
3.675220e+04, 3.430555e+12
3.678896e+04, 3.403544e+12
3.682575e+04, 3.404640e+12
3.686257e+04, 3.386051e+12
3.689943e+04, 3.387140e+12
3.693633e+04, 3.335162e+12
3.697327e+04, 3.147153e+12
3.701024e+04, 3.252675e+12
3.704725e+04, 3.230060e+12
3.708430e+04, 3.147554e+12
3.712138e+04, 3.300003e+12
3.715851e+04, 3.275754e+12
3.719566e+04, 3.292341e+12
3.723286e+04, 3.278553e+12
3.727009e+04, 3.276063e+12
3.730736e+04, 3.253677e+12
3.734467e+04, 3.045122e+12
3.738202e+04, 3.162355e+12
3.741940e+04, 3.215918e+12
3.745682e+04, 3.209408e+12
3.749427e+04, 3.206320e+12
3.753177e+04, 3.194617e+12
3.756930e+04, 3.181960e+12
3.760687e+04, 3.148621e+12
3.764448e+04, 3.081073e+12
3.768212e+04, 3.075877e+12
3.771980e+04, 3.105204e+12
3.775752e+04, 3.039016e+12
3.779528e+04, 3.020733e+12
3.783307e+04, 3.061000e+12
3.787091e+04, 3.099344e+12
3.790878e+04, 3.088551e+12
3.794669e+04, 3.076034e+12
3.798463e+04, 3.054096e+12
3.802262e+04, 3.059218e+12
3.806064e+04, 3.025861e+12
3.809870e+04, 2.957026e+12
3.813680e+04, 2.860885e+12
3.817494e+04, 2.997040e+12
3.821311e+04, 2.998433e+12
3.825133e+04, 2.983014e+12
3.828958e+04, 2.975744e+12
3.832787e+04, 2.911001e+12
3.836619e+04, 2.864426e+12
3.840456e+04, 2.880554e+12
3.844297e+04, 2.936945e+12
3.848141e+04, 2.901718e+12
3.851989e+04, 2.866941e+12
3.855841e+04, 2.825273e+12
3.859697e+04, 2.846608e+12
3.863556e+04, 2.824953e+12
3.867420e+04, 2.731874e+12
3.871287e+04, 2.817572e+12
3.875159e+04, 2.839252e+12
3.879034e+04, 2.833360e+12
3.882913e+04, 2.829299e+12
3.886796e+04, 2.802456e+12
3.890683e+04, 2.788419e+12
3.894573e+04, 2.656199e+12
3.898468e+04, 2.733253e+12
3.902366e+04, 2.761536e+12
3.906269e+04, 2.711447e+12
3.910175e+04, 2.615498e+12
3.914085e+04, 2.693747e+12
3.917999e+04, 2.742202e+12
3.921917e+04, 2.721915e+12
3.925839e+04, 2.721707e+12
3.929765e+04, 2.693460e+12
3.933695e+04, 2.637352e+12
3.937628e+04, 2.622104e+12
3.941566e+04, 2.684654e+12
3.945508e+04, 2.671940e+12
3.949453e+04, 2.648936e+12
3.953403e+04, 2.613721e+12
3.957356e+04, 2.633780e+12
3.961313e+04, 2.632140e+12
3.965275e+04, 2.625158e+12
3.969240e+04, 2.612448e+12
3.973209e+04, 2.598090e+12
3.977182e+04, 2.561569e+12
3.981160e+04, 2.450872e+12
3.985141e+04, 2.459683e+12
3.989126e+04, 2.503180e+12
3.993115e+04, 2.521182e+12
3.997108e+04, 2.534936e+12
4.001105e+04, 2.532759e+12
4.005106e+04, 2.515813e+12
4.009111e+04, 2.513126e+12
4.013121e+04, 2.502675e+12
4.017134e+04, 2.451496e+12
4.021151e+04, 2.392557e+12
4.025172e+04, 2.472347e+12
4.029197e+04, 2.471741e+12
4.033226e+04, 2.460278e+12
4.037260e+04, 2.455557e+12
4.041297e+04, 2.432033e+12
4.045338e+04, 2.325764e+12
4.049383e+04, 2.408868e+12
4.053433e+04, 2.384142e+12
4.057486e+04, 2.375945e+12
4.061544e+04, 2.377097e+12
4.065605e+04, 2.378172e+12
4.069671e+04, 2.290257e+12
4.073741e+04, 2.286385e+12
4.077814e+04, 2.326826e+12
4.081892e+04, 2.342297e+12
4.085974e+04, 2.306098e+12
4.090060e+04, 2.315886e+12
4.094150e+04, 2.314579e+12
4.098244e+04, 2.308422e+12
4.102342e+04, 2.305728e+12
4.106445e+04, 2.273448e+12
4.110551e+04, 2.204354e+12
4.114662e+04, 2.271752e+12
4.118776e+04, 2.267097e+12
4.122895e+04, 2.256209e+12
4.127018e+04, 2.231991e+12
4.131145e+04, 2.228681e+12
4.135276e+04, 2.201354e+12
4.139412e+04, 2.184897e+12
4.143551e+04, 2.205770e+12
4.147695e+04, 2.205187e+12
4.151842e+04, 2.203330e+12
4.155994e+04, 2.175060e+12
4.160150e+04, 2.138350e+12
4.164310e+04, 2.164101e+12
4.168475e+04, 2.074325e+12
4.172643e+04, 2.128600e+12
4.176816e+04, 2.148138e+12
4.180992e+04, 2.141943e+12
4.185173e+04, 2.102789e+12
4.189359e+04, 2.126337e+12
4.193548e+04, 2.088209e+12
4.197742e+04, 2.111068e+12
4.201939e+04, 2.030466e+12
4.206141e+04, 2.048608e+12
4.210347e+04, 2.063363e+12
4.214558e+04, 2.070452e+12
4.218772e+04, 2.052480e+12
4.222991e+04, 2.038827e+12
4.227214e+04, 2.050233e+12
4.231441e+04, 2.056090e+12
4.235673e+04, 2.047975e+12
4.239908e+04, 2.038606e+12
4.244148e+04, 2.029852e+12
4.248392e+04, 1.991713e+12
4.252641e+04, 1.961281e+12
4.256893e+04, 2.000410e+12
4.261150e+04, 1.992291e+12
4.265411e+04, 1.988639e+12
4.269677e+04, 1.942546e+12
4.273947e+04, 1.935478e+12
4.278221e+04, 1.974731e+12
4.282499e+04, 1.963469e+12
4.286781e+04, 1.959128e+12
4.291068e+04, 1.949548e+12
4.295359e+04, 1.786295e+12
4.299654e+04, 1.791064e+12
4.303954e+04, 1.788863e+12
4.308258e+04, 1.837179e+12
4.312566e+04, 1.825583e+12
4.316879e+04, 1.837969e+12
4.321196e+04, 1.834606e+12
4.325517e+04, 1.827749e+12
4.329842e+04, 1.815762e+12
4.334172e+04, 1.827560e+12
4.338506e+04, 1.806917e+12
4.342845e+04, 1.785178e+12
4.347188e+04, 1.782569e+12
4.351535e+04, 1.677321e+12
4.355887e+04, 1.695855e+12
4.360242e+04, 1.725685e+12
4.364603e+04, 1.725152e+12
4.368967e+04, 1.684462e+12
4.373336e+04, 1.702270e+12
4.377710e+04, 1.686443e+12
4.382087e+04, 1.684719e+12
4.386469e+04, 1.686851e+12
4.390856e+04, 1.704942e+12
4.395247e+04, 1.661991e+12
4.399642e+04, 1.682586e+12
4.404042e+04, 1.638269e+12
4.408446e+04, 1.540347e+12
4.412854e+04, 1.585128e+12
4.417267e+04, 1.589042e+12
4.421684e+04, 1.609591e+12
4.426106e+04, 1.598248e+12
4.430532e+04, 1.592458e+12
4.434963e+04, 1.555162e+12
4.439398e+04, 1.566168e+12
4.443837e+04, 1.600529e+12
4.448281e+04, 1.550934e+12
4.452729e+04, 1.581797e+12
4.457182e+04, 1.540468e+12
4.461639e+04, 1.568849e+12
4.466101e+04, 1.476831e+12
4.470567e+04, 1.494442e+12
4.475037e+04, 1.534453e+12
4.479512e+04, 1.465000e+12
4.483992e+04, 1.522934e+12
4.488476e+04, 1.487642e+12
4.492964e+04, 1.490692e+12
4.497457e+04, 1.511573e+12
4.501955e+04, 1.493293e+12
4.506457e+04, 1.462489e+12
4.510963e+04, 1.461341e+12
4.515474e+04, 1.459846e+12
4.519990e+04, 1.431382e+12
4.524510e+04, 1.440802e+12
4.529034e+04, 1.440510e+12
4.533563e+04, 1.390290e+12
4.538097e+04, 1.430805e+12
4.542635e+04, 1.444947e+12
4.547177e+04, 1.419500e+12
4.551725e+04, 1.385157e+12
4.556276e+04, 1.427897e+12
4.560833e+04, 1.397215e+12
4.565393e+04, 1.396937e+12
4.569959e+04, 1.412830e+12
4.574529e+04, 1.371744e+12
4.579103e+04, 1.407755e+12
4.583682e+04, 1.365131e+12
4.588266e+04, 1.319028e+12
4.592854e+04, 1.387103e+12
4.597447e+04, 1.352907e+12
4.602045e+04, 1.356605e+12
4.606647e+04, 1.365742e+12
4.611253e+04, 1.349835e+12
4.615865e+04, 1.299247e+12
4.620480e+04, 1.361603e+12
4.625101e+04, 1.299849e+12
4.629726e+04, 1.363812e+12
4.634356e+04, 1.348534e+12
4.638990e+04, 1.293134e+12
4.643629e+04, 1.337026e+12
4.648273e+04, 1.295321e+12
4.652921e+04, 1.317295e+12
4.657574e+04, 1.328483e+12
4.662231e+04, 1.298112e+12
4.666894e+04, 1.282623e+12
4.671561e+04, 1.326340e+12
4.676232e+04, 1.302392e+12
4.680908e+04, 1.259579e+12
4.685589e+04, 1.321448e+12
4.690275e+04, 1.257554e+12
4.694965e+04, 1.308109e+12
4.699660e+04, 1.258827e+12
4.704360e+04, 1.287472e+12
4.709064e+04, 1.253495e+12
4.713773e+04, 1.255425e+12
4.718487e+04, 1.238390e+12
4.723205e+04, 1.292263e+12
4.727929e+04, 1.231939e+12
4.732657e+04, 1.232311e+12
4.737389e+04, 1.249490e+12
4.742127e+04, 1.239646e+12
4.746869e+04, 1.240534e+12
4.751616e+04, 1.227284e+12
4.756367e+04, 1.209878e+12
4.761124e+04, 1.223449e+12
4.765885e+04, 1.199912e+12
4.770651e+04, 1.230730e+12
4.775421e+04, 1.203546e+12
4.780197e+04, 1.203931e+12
4.784977e+04, 1.178150e+12
4.789762e+04, 1.238614e+12
4.794552e+04, 1.133980e+12
4.799346e+04, 1.209476e+12
4.804146e+04, 1.168084e+12
4.808950e+04, 1.184431e+12
4.813759e+04, 1.156055e+12
4.818572e+04, 1.187912e+12
4.823391e+04, 1.163585e+12
4.828214e+04, 1.201226e+12
4.833043e+04, 1.140723e+12
4.837876e+04, 1.169733e+12
4.842713e+04, 1.145255e+12
4.847556e+04, 1.161925e+12
4.852404e+04, 1.139633e+12
4.857256e+04, 1.159343e+12
4.862113e+04, 1.134236e+12
4.866976e+04, 1.136151e+12
4.871842e+04, 1.102211e+12
4.876714e+04, 1.101546e+12
4.881591e+04, 1.144605e+12
4.886473e+04, 1.102395e+12
4.891359e+04, 1.124180e+12
4.896250e+04, 1.081574e+12
4.901147e+04, 1.129670e+12
4.906048e+04, 1.109506e+12
4.910954e+04, 1.098893e+12
4.915865e+04, 1.085815e+12
4.920781e+04, 1.083610e+12
4.925702e+04, 1.057661e+12
4.930627e+04, 1.085726e+12
4.935558e+04, 1.062144e+12
4.940493e+04, 1.104197e+12
4.945434e+04, 1.066857e+12
4.950379e+04, 1.056036e+12
4.955330e+04, 1.042707e+12
4.960285e+04, 1.036758e+12
4.965245e+04, 1.076406e+12
4.970211e+04, 1.021058e+12
4.975181e+04, 1.085615e+12
4.980156e+04, 1.031099e+12
4.985136e+04, 1.055983e+12
4.990121e+04, 1.002991e+12
4.995111e+04, 1.046289e+12
5.000106e+04, 1.006079e+12
5.005107e+04, 1.031985e+12
5.010112e+04, 1.001666e+12
5.015122e+04, 1.015523e+12
5.020137e+04, 9.899875e+11
5.025157e+04, 1.008445e+12
5.030182e+04, 9.880472e+11
5.035212e+04, 1.007581e+12
5.040248e+04, 9.964283e+11
5.045288e+04, 9.873398e+11
5.050333e+04, 1.031700e+12
5.055383e+04, 9.644432e+11
5.060439e+04, 9.885966e+11
5.065499e+04, 9.507235e+11
5.070565e+04, 1.006436e+12
5.075635e+04, 9.740560e+11
5.080711e+04, 9.472281e+11
5.085792e+04, 9.833176e+11
5.090878e+04, 9.449537e+11
5.095968e+04, 9.514257e+11
5.101064e+04, 9.661869e+11
5.106165e+04, 9.340939e+11
5.111272e+04, 9.496982e+11
5.116383e+04, 9.541437e+11
5.121499e+04, 9.278443e+11
5.126621e+04, 9.462828e+11
5.131747e+04, 9.117366e+11
5.136879e+04, 9.513684e+11
5.142016e+04, 9.403184e+11
5.147158e+04, 8.872487e+11
5.152305e+04, 9.525396e+11
5.157457e+04, 9.107256e+11
5.162615e+04, 9.125593e+11
5.167778e+04, 9.099052e+11
5.172945e+04, 8.994655e+11
5.178118e+04, 9.191618e+11
5.183296e+04, 9.031825e+11
5.188480e+04, 8.989159e+11
5.193668e+04, 9.079316e+11
5.198862e+04, 8.718183e+11
5.204061e+04, 8.882611e+11
5.209265e+04, 9.077823e+11
5.214474e+04, 8.752713e+11
5.219688e+04, 8.873479e+11
5.224908e+04, 8.618904e+11
5.230133e+04, 8.695767e+11
5.235363e+04, 8.865685e+11
5.240599e+04, 8.503717e+11
5.245839e+04, 8.710592e+11
5.251085e+04, 8.601881e+11
5.256336e+04, 8.547262e+11
5.261592e+04, 8.729694e+11
5.266854e+04, 8.528995e+11
5.272121e+04, 8.462108e+11
5.277393e+04, 8.673153e+11
5.282670e+04, 8.264745e+11
5.287953e+04, 8.500501e+11
5.293241e+04, 8.286230e+11
5.298534e+04, 8.309084e+11
5.303833e+04, 8.470969e+11
5.309137e+04, 8.035641e+11
5.314446e+04, 8.325916e+11
5.319760e+04, 8.268911e+11
5.325080e+04, 8.081036e+11
5.330405e+04, 8.174547e+11
5.335735e+04, 8.249354e+11
5.341071e+04, 8.019492e+11
5.346412e+04, 8.165326e+11
5.351759e+04, 8.001589e+11
5.357110e+04, 8.071416e+11
5.362468e+04, 8.064205e+11
5.367830e+04, 7.956400e+11
5.373198e+04, 8.013313e+11
5.378571e+04, 7.798847e+11
5.383950e+04, 7.963894e+11
5.389334e+04, 7.889143e+11
5.394723e+04, 7.827550e+11
5.400118e+04, 7.890036e+11
5.405518e+04, 7.887838e+11
5.410923e+04, 7.572914e+11
5.416334e+04, 7.800040e+11
5.421751e+04, 7.672814e+11
5.427172e+04, 7.561601e+11
5.432599e+04, 7.727456e+11
5.438032e+04, 7.486421e+11
5.443470e+04, 7.698522e+11
5.448914e+04, 7.712866e+11
5.454362e+04, 7.399773e+11
5.459817e+04, 7.568134e+11
5.465277e+04, 7.468350e+11
5.470742e+04, 7.450048e+11
5.476213e+04, 7.428359e+11
5.481689e+04, 7.478447e+11
5.487171e+04, 7.487360e+11
5.492658e+04, 7.298923e+11
5.498150e+04, 7.340188e+11
5.503649e+04, 7.457978e+11
5.509152e+04, 7.194991e+11
5.514661e+04, 7.231641e+11
5.520176e+04, 7.400873e+11
5.525696e+04, 7.062028e+11
5.531222e+04, 7.127274e+11
5.536753e+04, 7.412786e+11
5.542290e+04, 7.052432e+11
5.547832e+04, 7.038477e+11
5.553380e+04, 7.177716e+11
5.558933e+04, 7.048716e+11
5.564492e+04, 6.992282e+11
5.570057e+04, 7.095962e+11
5.575627e+04, 7.004910e+11
5.581202e+04, 6.925633e+11
5.586784e+04, 6.967260e+11
5.592370e+04, 6.993956e+11
5.597963e+04, 6.962645e+11
5.603561e+04, 6.866394e+11
5.609164e+04, 6.930057e+11
5.614774e+04, 6.890236e+11
5.620388e+04, 6.687446e+11
5.626009e+04, 6.830240e+11
5.631635e+04, 6.765731e+11
5.637266e+04, 6.699125e+11
5.642904e+04, 6.750736e+11
5.648546e+04, 6.753543e+11
5.654195e+04, 6.638933e+11
5.659849e+04, 6.643558e+11
5.665509e+04, 6.633038e+11
5.671175e+04, 6.729246e+11
5.676846e+04, 6.499922e+11
5.682523e+04, 6.523446e+11
5.688205e+04, 6.583009e+11
5.693893e+04, 6.427902e+11
5.699587e+04, 6.544209e+11
5.705287e+04, 6.558629e+11
5.710992e+04, 6.432008e+11
5.716703e+04, 6.315459e+11
5.722420e+04, 6.409643e+11
5.728142e+04, 6.424230e+11
5.733870e+04, 6.226723e+11
5.739604e+04, 6.368323e+11
5.745344e+04, 6.406690e+11
5.751089e+04, 6.305501e+11
5.756840e+04, 6.260078e+11
5.762597e+04, 6.267124e+11
5.768360e+04, 6.305716e+11
5.774128e+04, 6.159992e+11
5.779902e+04, 6.169804e+11
5.785682e+04, 6.225845e+11
5.791468e+04, 6.121071e+11
5.797259e+04, 6.074759e+11
5.803056e+04, 6.208108e+11
5.808860e+04, 6.157622e+11
5.814668e+04, 5.977073e+11
5.820483e+04, 6.023468e+11
5.826304e+04, 6.077339e+11
5.832130e+04, 5.955370e+11
5.837962e+04, 5.931911e+11
5.843800e+04, 6.002547e+11
5.849644e+04, 5.981320e+11
5.855493e+04, 5.847142e+11
5.861349e+04, 5.952665e+11
5.867210e+04, 5.947535e+11
5.873077e+04, 5.777173e+11
5.878951e+04, 5.833433e+11
5.884829e+04, 5.828320e+11
5.890714e+04, 5.893109e+11
5.896605e+04, 5.665422e+11
5.902502e+04, 5.712466e+11
5.908404e+04, 5.785353e+11
5.914313e+04, 5.706192e+11
5.920227e+04, 5.691725e+11
5.926147e+04, 5.740001e+11
5.932073e+04, 5.716160e+11
5.938005e+04, 5.597743e+11
5.943943e+04, 5.643105e+11
5.949887e+04, 5.605637e+11
5.955837e+04, 5.590568e+11
5.961793e+04, 5.541319e+11
5.967755e+04, 5.523581e+11
5.973723e+04, 5.569029e+11
5.979696e+04, 5.480557e+11
5.985676e+04, 5.507001e+11
5.991662e+04, 5.488676e+11
5.997653e+04, 5.447729e+11
6.003651e+04, 5.460420e+11
6.009655e+04, 5.470614e+11
6.015664e+04, 5.407343e+11
6.021680e+04, 5.342194e+11
6.027702e+04, 5.395773e+11
6.033729e+04, 5.297244e+11
6.039763e+04, 5.278853e+11
6.045803e+04, 5.275175e+11
6.051849e+04, 5.279998e+11
6.057900e+04, 5.296633e+11
6.063958e+04, 5.221266e+11
6.070022e+04, 5.244608e+11
6.076092e+04, 5.241127e+11
6.082168e+04, 5.207969e+11
6.088251e+04, 5.125482e+11
6.094339e+04, 5.190082e+11
6.100433e+04, 5.122621e+11
6.106534e+04, 5.112724e+11
6.112640e+04, 5.047039e+11
6.118753e+04, 5.097070e+11
6.124872e+04, 5.080277e+11
6.130996e+04, 5.060614e+11
6.137127e+04, 5.061639e+11
6.143265e+04, 5.009606e+11
6.149408e+04, 4.984171e+11
6.155557e+04, 5.000143e+11
6.161713e+04, 4.959738e+11
6.167874e+04, 4.980363e+11
6.174042e+04, 4.879178e+11
6.180216e+04, 4.925205e+11
6.186397e+04, 4.900731e+11
6.192583e+04, 4.874794e+11
6.198776e+04, 4.841083e+11
6.204974e+04, 4.851519e+11
6.211179e+04, 4.856115e+11
6.217390e+04, 4.770851e+11
6.223608e+04, 4.795591e+11
6.229831e+04, 4.810282e+11
6.236061e+04, 4.778945e+11
6.242297e+04, 4.649566e+11
6.248540e+04, 4.697569e+11
6.254788e+04, 4.666172e+11
6.261043e+04, 4.661759e+11
6.267304e+04, 4.665397e+11
6.273571e+04, 4.620364e+11
6.279845e+04, 4.632303e+11
6.286125e+04, 4.650493e+11
6.292411e+04, 4.566878e+11
6.298703e+04, 4.579636e+11
6.305002e+04, 4.583008e+11
6.311307e+04, 4.552641e+11
6.317618e+04, 4.501163e+11
6.323936e+04, 4.526957e+11
6.330260e+04, 4.504326e+11
6.336590e+04, 4.478918e+11
6.342927e+04, 4.451391e+11
6.349270e+04, 4.447278e+11
6.355619e+04, 4.388427e+11
6.361975e+04, 4.418488e+11
6.368337e+04, 4.407708e+11
6.374705e+04, 4.394956e+11
6.381080e+04, 4.323522e+11
6.387461e+04, 4.322582e+11
6.393848e+04, 4.338713e+11
6.400242e+04, 4.327275e+11
6.406642e+04, 4.261351e+11
6.413049e+04, 4.247341e+11
6.419462e+04, 4.239392e+11
6.425881e+04, 4.262003e+11
6.432307e+04, 4.193011e+11
6.438740e+04, 4.190562e+11
6.445178e+04, 4.195771e+11
6.451623e+04, 4.112279e+11
6.458075e+04, 4.129702e+11
6.464533e+04, 4.127992e+11
6.470998e+04, 3.995128e+11
6.477469e+04, 4.009313e+11
6.483946e+04, 3.987133e+11
6.490430e+04, 4.042717e+11
6.496921e+04, 3.996971e+11
6.503417e+04, 3.939058e+11
6.509921e+04, 4.012210e+11
6.516431e+04, 3.925303e+11
6.522947e+04, 3.949576e+11
6.529470e+04, 3.890587e+11
6.536000e+04, 3.900596e+11
6.542536e+04, 3.864576e+11
6.549078e+04, 3.852950e+11
6.555627e+04, 3.843903e+11
6.562183e+04, 3.800702e+11
6.568745e+04, 3.772305e+11
6.575314e+04, 3.775926e+11
6.581889e+04, 3.804963e+11
6.588471e+04, 3.766484e+11
6.595059e+04, 3.654786e+11
6.601655e+04, 3.701869e+11
6.608256e+04, 3.761929e+11
6.614864e+04, 3.678107e+11
6.621479e+04, 3.594622e+11
6.628101e+04, 3.623081e+11
6.634729e+04, 3.611536e+11
6.641364e+04, 3.605180e+11
6.648005e+04, 3.642801e+11
6.654653e+04, 3.575164e+11
6.661308e+04, 3.584180e+11
6.667969e+04, 3.590396e+11
6.674637e+04, 3.560196e+11
6.681312e+04, 3.494806e+11
6.687993e+04, 3.479725e+11
6.694681e+04, 3.503534e+11
6.701376e+04, 3.518125e+11
6.708077e+04, 3.526515e+11
6.714785e+04, 3.479013e+11
6.721500e+04, 3.471379e+11
6.728221e+04, 3.445675e+11
6.734949e+04, 3.453045e+11
6.741684e+04, 3.442727e+11
6.748426e+04, 3.385797e+11
6.755175e+04, 3.407595e+11
6.761930e+04, 3.381679e+11
6.768692e+04, 3.346902e+11
6.775460e+04, 3.344888e+11
6.782236e+04, 3.301705e+11
6.789018e+04, 3.304512e+11
6.795807e+04, 3.308566e+11
6.802603e+04, 3.327659e+11
6.809405e+04, 3.282049e+11
6.816215e+04, 3.203912e+11
6.823031e+04, 3.270714e+11
6.829854e+04, 3.219915e+11
6.836684e+04, 3.191550e+11
6.843521e+04, 3.271027e+11
6.850364e+04, 3.231450e+11
6.857215e+04, 3.182109e+11
6.864072e+04, 3.194257e+11
6.870936e+04, 3.171803e+11
6.877807e+04, 3.185341e+11
6.884685e+04, 3.139208e+11
6.891569e+04, 3.150745e+11
6.898461e+04, 3.149940e+11
6.905359e+04, 3.072836e+11
6.912265e+04, 3.123662e+11
6.919177e+04, 3.074631e+11
6.926096e+04, 3.075586e+11
6.933022e+04, 3.087281e+11
6.939955e+04, 3.039130e+11
6.946895e+04, 3.051588e+11
6.953842e+04, 3.024516e+11
6.960796e+04, 3.019463e+11
6.967757e+04, 2.994465e+11
6.974724e+04, 2.988453e+11
6.981699e+04, 2.983243e+11
6.988681e+04, 3.009595e+11
6.995670e+04, 3.014316e+11
7.002665e+04, 2.936959e+11
7.009668e+04, 2.904391e+11
7.016678e+04, 2.936112e+11
7.023694e+04, 2.912580e+11
7.030718e+04, 2.890164e+11
7.037749e+04, 2.952694e+11
7.044786e+04, 2.901622e+11
7.051831e+04, 2.852956e+11
7.058883e+04, 2.896496e+11
7.065942e+04, 2.879329e+11
7.073008e+04, 2.838053e+11
7.080081e+04, 2.825056e+11
7.087161e+04, 2.837554e+11
7.094248e+04, 2.804960e+11
7.101342e+04, 2.799285e+11
7.108444e+04, 2.772067e+11
7.115552e+04, 2.799281e+11
7.122668e+04, 2.767609e+11
7.129790e+04, 2.775921e+11
7.136920e+04, 2.742259e+11
7.144057e+04, 2.741106e+11
7.151201e+04, 2.726591e+11
7.158352e+04, 2.764865e+11
7.165511e+04, 2.738095e+11
7.172676e+04, 2.705352e+11
7.179849e+04, 2.692986e+11
7.187029e+04, 2.696215e+11
7.194216e+04, 2.675177e+11
7.201410e+04, 2.664954e+11
7.208611e+04, 2.644723e+11
7.215820e+04, 2.642416e+11
7.223036e+04, 2.629900e+11
7.230259e+04, 2.627737e+11
7.237489e+04, 2.612988e+11
7.244727e+04, 2.608017e+11
7.251971e+04, 2.611594e+11
7.259223e+04, 2.569080e+11
7.266482e+04, 2.593811e+11
7.273749e+04, 2.520475e+11
7.281023e+04, 2.567814e+11
7.288304e+04, 2.568743e+11
7.295592e+04, 2.525002e+11
7.302888e+04, 2.523671e+11
7.310191e+04, 2.535664e+11
7.317501e+04, 2.527332e+11
7.324818e+04, 2.514267e+11
7.332143e+04, 2.472677e+11
7.339475e+04, 2.466542e+11
7.346815e+04, 2.460688e+11
7.354161e+04, 2.463476e+11
7.361516e+04, 2.450523e+11
7.368877e+04, 2.446140e+11
7.376246e+04, 2.409709e+11
7.383622e+04, 2.429901e+11
7.391006e+04, 2.443049e+11
7.398397e+04, 2.425073e+11
7.405795e+04, 2.411441e+11
7.413201e+04, 2.387770e+11
7.420614e+04, 2.378468e+11
7.428035e+04, 2.363695e+11
7.435463e+04, 2.337152e+11
7.442898e+04, 2.333150e+11
7.450341e+04, 2.344181e+11
7.457792e+04, 2.334398e+11
7.465249e+04, 2.332041e+11
7.472715e+04, 2.331595e+11
7.480187e+04, 2.321354e+11
7.487668e+04, 2.339554e+11
7.495155e+04, 2.272463e+11
7.502650e+04, 2.278015e+11
7.510153e+04, 2.298403e+11
7.517663e+04, 2.267540e+11
7.525181e+04, 2.262055e+11
7.532706e+04, 2.238982e+11
7.540239e+04, 2.231359e+11
7.547779e+04, 2.243622e+11
7.555327e+04, 2.221345e+11
7.562882e+04, 2.236970e+11
7.570445e+04, 2.182995e+11
7.578015e+04, 2.178367e+11
7.585593e+04, 2.157624e+11
7.593179e+04, 2.186232e+11
7.600772e+04, 2.129064e+11
7.608373e+04, 2.149204e+11
7.615981e+04, 2.120198e+11
7.623597e+04, 2.152486e+11
7.631221e+04, 2.083337e+11
7.638852e+04, 2.109722e+11
7.646491e+04, 2.097630e+11
7.654138e+04, 2.098534e+11
7.661792e+04, 2.073830e+11
7.669453e+04, 2.062251e+11
7.677123e+04, 2.076572e+11
7.684800e+04, 2.072092e+11
7.692485e+04, 2.056650e+11
7.700177e+04, 2.052021e+11
7.707877e+04, 2.019478e+11
7.715585e+04, 2.013057e+11
7.723301e+04, 2.013375e+11
7.731024e+04, 2.000308e+11
7.738755e+04, 1.963797e+11
7.746494e+04, 1.965583e+11
7.754241e+04, 1.987703e+11
7.761995e+04, 1.963195e+11
7.769757e+04, 1.954191e+11
7.777527e+04, 1.965398e+11
7.785304e+04, 1.921071e+11
7.793089e+04, 1.939204e+11
7.800882e+04, 1.893470e+11
7.808683e+04, 1.906182e+11
7.816492e+04, 1.912847e+11
7.824308e+04, 1.920639e+11
7.832133e+04, 1.896554e+11
7.839965e+04, 1.905548e+11
7.847805e+04, 1.900670e+11
7.855653e+04, 1.851665e+11
7.863508e+04, 1.852580e+11
7.871372e+04, 1.835087e+11
7.879243e+04, 1.847910e+11
7.887122e+04, 1.825710e+11
7.895010e+04, 1.805516e+11
7.902905e+04, 1.826327e+11
7.910808e+04, 1.815648e+11
7.918718e+04, 1.822246e+11
7.926637e+04, 1.794166e+11
7.934564e+04, 1.813239e+11
7.942498e+04, 1.793135e+11
7.950441e+04, 1.778551e+11
7.958391e+04, 1.770158e+11
7.966350e+04, 1.758355e+11
7.974316e+04, 1.749055e+11
7.982290e+04, 1.741887e+11
7.990273e+04, 1.737579e+11
7.998263e+04, 1.748178e+11
8.006261e+04, 1.735781e+11
8.014267e+04, 1.729678e+11
8.022282e+04, 1.703186e+11
8.030304e+04, 1.739938e+11
8.038334e+04, 1.697156e+11
8.046373e+04, 1.693027e+11
8.054419e+04, 1.691941e+11
8.062473e+04, 1.691579e+11
8.070536e+04, 1.680088e+11
8.078606e+04, 1.670616e+11
8.086685e+04, 1.680535e+11
8.094772e+04, 1.652403e+11
8.102866e+04, 1.640741e+11
8.110969e+04, 1.648604e+11
8.119080e+04, 1.639455e+11
8.127199e+04, 1.635476e+11
8.135326e+04, 1.647514e+11
8.143462e+04, 1.640871e+11
8.151605e+04, 1.620033e+11
8.159757e+04, 1.599819e+11
8.167917e+04, 1.622195e+11
8.176085e+04, 1.617846e+11
8.184261e+04, 1.601716e+11
8.192445e+04, 1.589860e+11
8.200637e+04, 1.565138e+11
8.208838e+04, 1.572405e+11
8.217047e+04, 1.573782e+11
8.225264e+04, 1.567241e+11
8.233489e+04, 1.555566e+11
8.241723e+04, 1.560515e+11
8.249964e+04, 1.565621e+11
8.258214e+04, 1.566478e+11
8.266473e+04, 1.531905e+11
8.274739e+04, 1.536976e+11
8.283014e+04, 1.502029e+11
8.291297e+04, 1.534696e+11
8.299588e+04, 1.516081e+11
8.307888e+04, 1.521178e+11
8.316196e+04, 1.498111e+11
8.324512e+04, 1.491227e+11
8.332836e+04, 1.477230e+11
8.341169e+04, 1.493741e+11
8.349510e+04, 1.480115e+11
8.357860e+04, 1.482096e+11
8.366218e+04, 1.474354e+11
8.374584e+04, 1.443360e+11
8.382958e+04, 1.449192e+11
8.391341e+04, 1.444310e+11
8.399733e+04, 1.453567e+11
8.408132e+04, 1.452028e+11
8.416541e+04, 1.457185e+11
8.424957e+04, 1.429942e+11
8.433382e+04, 1.427346e+11
8.441815e+04, 1.429955e+11
8.450257e+04, 1.418639e+11
8.458708e+04, 1.391932e+11
8.467166e+04, 1.411346e+11
8.475633e+04, 1.408206e+11
8.484109e+04, 1.391614e+11
8.492593e+04, 1.385995e+11
8.501086e+04, 1.365740e+11
8.509587e+04, 1.388584e+11
8.518096e+04, 1.374816e+11
8.526614e+04, 1.393423e+11
8.535141e+04, 1.353722e+11
8.543676e+04, 1.356933e+11
8.552220e+04, 1.353851e+11
8.560772e+04, 1.343483e+11
8.569333e+04, 1.340270e+11
8.577902e+04, 1.345407e+11
8.586480e+04, 1.335419e+11
8.595067e+04, 1.329682e+11
8.603662e+04, 1.333959e+11
8.612265e+04, 1.326144e+11
8.620878e+04, 1.302045e+11
8.629499e+04, 1.305851e+11
8.638128e+04, 1.323351e+11
8.646766e+04, 1.299232e+11
8.655413e+04, 1.293964e+11
8.664068e+04, 1.299918e+11
8.672732e+04, 1.281315e+11
8.681405e+04, 1.267312e+11
8.690087e+04, 1.286469e+11
8.698777e+04, 1.301176e+11
8.707475e+04, 1.259379e+11
8.716183e+04, 1.252116e+11
8.724899e+04, 1.259854e+11
8.733624e+04, 1.242140e+11
8.742358e+04, 1.247589e+11
8.751100e+04, 1.239313e+11
8.759851e+04, 1.220744e+11
8.768611e+04, 1.230067e+11
8.777379e+04, 1.236463e+11
8.786157e+04, 1.223167e+11
8.794943e+04, 1.222733e+11
8.803738e+04, 1.199048e+11
8.812542e+04, 1.215028e+11
8.821354e+04, 1.199909e+11
8.830176e+04, 1.204120e+11
8.839006e+04, 1.196831e+11
8.847845e+04, 1.200231e+11
8.856693e+04, 1.181592e+11
8.865549e+04, 1.178095e+11
8.874415e+04, 1.186710e+11
8.883289e+04, 1.179546e+11
8.892173e+04, 1.168874e+11
8.901065e+04, 1.176598e+11
8.909966e+04, 1.156685e+11
8.918876e+04, 1.156676e+11
8.927795e+04, 1.161855e+11
8.936722e+04, 1.151943e+11
8.945659e+04, 1.136604e+11
8.954605e+04, 1.141751e+11
8.963559e+04, 1.139039e+11
8.972523e+04, 1.127261e+11
8.981496e+04, 1.116873e+11
8.990477e+04, 1.135931e+11
8.999467e+04, 1.119021e+11
9.008467e+04, 1.127627e+11
9.017475e+04, 1.107730e+11
9.026493e+04, 1.111323e+11
9.035519e+04, 1.101965e+11
9.044555e+04, 1.107168e+11
9.053599e+04, 1.106229e+11
9.062653e+04, 1.084336e+11
9.071716e+04, 1.093874e+11
9.080787e+04, 1.087036e+11
9.089868e+04, 1.070846e+11
9.098958e+04, 1.085935e+11
9.108057e+04, 1.066563e+11
9.117165e+04, 1.073257e+11
9.126282e+04, 1.058512e+11
9.135409e+04, 1.057906e+11
9.144544e+04, 1.062636e+11
9.153688e+04, 1.040826e+11
9.162842e+04, 1.060136e+11
9.172005e+04, 1.034294e+11
9.181177e+04, 1.044195e+11
9.190358e+04, 1.033796e+11
9.199549e+04, 1.026254e+11
9.208748e+04, 1.032202e+11
9.217957e+04, 1.021361e+11
9.227175e+04, 1.022811e+11
9.236402e+04, 1.021421e+11
9.245638e+04, 1.011557e+11
9.254884e+04, 1.004161e+11
9.264139e+04, 9.954237e+10
9.273403e+04, 1.003049e+11
9.282676e+04, 9.974464e+10
9.291959e+04, 9.902038e+10
9.301251e+04, 9.821280e+10
9.310552e+04, 9.802857e+10
9.319863e+04, 9.699785e+10
9.329183e+04, 9.720429e+10
9.338512e+04, 9.725781e+10
9.347850e+04, 9.776359e+10
9.357198e+04, 9.714029e+10
9.366556e+04, 9.733265e+10
9.375922e+04, 9.547267e+10
9.385298e+04, 9.566751e+10
9.394683e+04, 9.363398e+10
9.404078e+04, 9.501495e+10
9.413482e+04, 9.431880e+10
9.422896e+04, 9.454556e+10
9.432318e+04, 9.459478e+10
9.441751e+04, 9.239452e+10
9.451192e+04, 9.378478e+10
9.460644e+04, 9.258563e+10
9.470104e+04, 9.207847e+10
9.479574e+04, 9.145110e+10
9.489054e+04, 9.259373e+10
9.498543e+04, 9.106914e+10
9.508042e+04, 9.122366e+10
9.517550e+04, 9.074256e+10
9.527067e+04, 9.114013e+10
9.536594e+04, 9.032202e+10
9.546131e+04, 9.071710e+10
9.555677e+04, 8.947797e+10
9.565233e+04, 8.762853e+10
9.574798e+04, 8.878879e+10
9.584373e+04, 8.831660e+10
9.593957e+04, 8.780786e+10
9.603551e+04, 8.738340e+10
9.613155e+04, 8.748068e+10
9.622768e+04, 8.701308e+10
9.632390e+04, 8.665127e+10
9.642023e+04, 8.653985e+10
9.651665e+04, 8.664159e+10
9.661317e+04, 8.515390e+10
9.670978e+04, 8.431349e+10
9.680649e+04, 8.453954e+10
9.690330e+04, 8.571911e+10
9.700020e+04, 8.422870e+10
9.709720e+04, 8.427194e+10
9.719430e+04, 8.349711e+10
9.729149e+04, 8.378576e+10
9.738878e+04, 8.302979e+10
9.748617e+04, 8.315104e+10
9.758366e+04, 8.293378e+10
9.768124e+04, 8.278688e+10
9.777892e+04, 8.093514e+10
9.787670e+04, 8.001104e+10
9.797458e+04, 8.171555e+10
9.807255e+04, 8.118449e+10
9.817062e+04, 8.040226e+10
9.826879e+04, 8.039487e+10
9.836706e+04, 8.075954e+10
9.846543e+04, 8.004737e+10
9.856390e+04, 7.885878e+10
9.866246e+04, 7.901992e+10
9.876112e+04, 7.988992e+10
9.885988e+04, 7.758237e+10
9.895874e+04, 7.726941e+10
9.905770e+04, 7.765918e+10
9.915676e+04, 7.650680e+10
9.925592e+04, 7.542235e+10
9.935517e+04, 7.716840e+10
9.945453e+04, 7.682832e+10
9.955398e+04, 7.654973e+10
9.965354e+04, 7.585952e+10
9.975319e+04, 7.617175e+10
9.985294e+04, 7.564759e+10
9.995280e+04, 7.508500e+10
1.000527e+05, 7.554446e+10
1.001528e+05, 7.488234e+10
1.002530e+05, 7.478164e+10
1.003532e+05, 7.416505e+10
1.004536e+05, 7.485389e+10
1.005540e+05, 7.349995e+10
1.006546e+05, 7.163404e+10
1.007552e+05, 7.236585e+10
1.008560e+05, 7.240351e+10
1.009568e+05, 7.274746e+10
1.010578e+05, 7.230831e+10
1.011588e+05, 7.214680e+10
1.012600e+05, 7.191250e+10
1.013613e+05, 7.037063e+10
1.014626e+05, 7.143167e+10
1.015641e+05, 7.118055e+10
1.016657e+05, 7.137231e+10
1.017673e+05, 7.048221e+10
1.018691e+05, 6.985562e+10
1.019710e+05, 7.055706e+10
1.020729e+05, 6.977168e+10
1.021750e+05, 6.869652e+10
1.022772e+05, 6.816764e+10
1.023795e+05, 6.802266e+10
1.024818e+05, 6.817860e+10
1.025843e+05, 6.783140e+10
1.026869e+05, 6.841738e+10
1.027896e+05, 6.747934e+10
1.028924e+05, 6.765444e+10
1.029953e+05, 6.769991e+10
1.030983e+05, 6.700855e+10
1.032014e+05, 6.589983e+10
1.033046e+05, 6.640036e+10
1.034079e+05, 6.646057e+10
1.035113e+05, 6.640424e+10
1.036148e+05, 6.532805e+10
1.037184e+05, 6.537199e+10
1.038221e+05, 6.416739e+10
1.039259e+05, 6.485859e+10
1.040299e+05, 6.295610e+10
1.041339e+05, 6.390881e+10
1.042380e+05, 6.360878e+10
1.043423e+05, 6.333721e+10
1.044466e+05, 6.388852e+10
1.045511e+05, 6.325578e+10
1.046556e+05, 6.320872e+10
1.047603e+05, 6.205303e+10
1.048650e+05, 6.299058e+10
1.049699e+05, 6.265489e+10
1.050749e+05, 6.160172e+10
1.051799e+05, 6.201957e+10
1.052851e+05, 6.114924e+10
1.053904e+05, 6.111529e+10
1.054958e+05, 6.103972e+10
1.056013e+05, 6.069784e+10
1.057069e+05, 6.081068e+10
1.058126e+05, 6.065181e+10
1.059184e+05, 5.978318e+10
1.060243e+05, 5.842675e+10
1.061303e+05, 5.867554e+10
1.062365e+05, 6.023805e+10
1.063427e+05, 5.889756e+10
1.064491e+05, 5.976524e+10
1.065555e+05, 5.852769e+10
1.066621e+05, 5.889101e+10
1.067687e+05, 5.850291e+10
1.068755e+05, 5.714207e+10
1.069824e+05, 5.765345e+10
1.070894e+05, 5.683232e+10
1.071964e+05, 5.763502e+10
1.073036e+05, 5.710318e+10
1.074109e+05, 5.683296e+10
1.075184e+05, 5.629046e+10
1.076259e+05, 5.652743e+10
1.077335e+05, 5.653827e+10
1.078412e+05, 5.575880e+10
1.079491e+05, 5.550744e+10
1.080570e+05, 5.549449e+10
1.081651e+05, 5.477561e+10
1.082732e+05, 5.375816e+10
1.083815e+05, 5.584237e+10
1.084899e+05, 5.464753e+10
1.085984e+05, 5.507046e+10
1.087070e+05, 5.407927e+10
1.088157e+05, 5.359994e+10
1.089245e+05, 5.279565e+10
1.090334e+05, 5.290949e+10
1.091425e+05, 5.364398e+10
1.092516e+05, 5.340180e+10
1.093609e+05, 5.271235e+10
1.094702e+05, 5.274878e+10
1.095797e+05, 5.350008e+10
1.096893e+05, 5.217268e+10
1.097990e+05, 5.178367e+10
1.099088e+05, 5.171582e+10
1.100187e+05, 5.212422e+10
1.101287e+05, 5.174578e+10
1.102388e+05, 5.143623e+10
1.103491e+05, 5.170161e+10
1.104594e+05, 4.934364e+10
1.105699e+05, 4.937125e+10
1.106804e+05, 4.968434e+10
1.107911e+05, 4.972575e+10
1.109019e+05, 4.977704e+10
1.110128e+05, 5.047462e+10
1.111238e+05, 4.917934e+10
1.112349e+05, 4.991213e+10
1.113462e+05, 4.908652e+10
1.114575e+05, 5.014533e+10
1.115690e+05, 4.908030e+10
1.116806e+05, 4.886408e+10
1.117922e+05, 4.827979e+10
1.119040e+05, 4.853450e+10
1.120159e+05, 4.745201e+10
1.121279e+05, 4.761234e+10
1.122401e+05, 4.775927e+10
1.123523e+05, 4.773482e+10
1.124647e+05, 4.766853e+10
1.125771e+05, 4.718849e+10
1.126897e+05, 4.707279e+10
1.128024e+05, 4.724740e+10
1.129152e+05, 4.570685e+10
1.130281e+05, 4.542212e+10
1.131411e+05, 4.560324e+10
1.132543e+05, 4.533659e+10
1.133675e+05, 4.593910e+10
1.134809e+05, 4.621007e+10
1.135944e+05, 4.533931e+10
1.137080e+05, 4.524945e+10
1.138217e+05, 4.548785e+10
1.139355e+05, 4.469012e+10
1.140494e+05, 4.505932e+10
1.141635e+05, 4.567787e+10
1.142777e+05, 4.457810e+10
1.143919e+05, 4.393704e+10
1.145063e+05, 4.378468e+10
1.146208e+05, 4.445988e+10
1.147355e+05, 4.371295e+10
1.148502e+05, 4.337333e+10
1.149650e+05, 4.373295e+10
1.150800e+05, 4.342793e+10
1.151951e+05, 4.294829e+10
1.153103e+05, 4.280905e+10
1.154256e+05, 4.218121e+10
1.155410e+05, 4.178388e+10
1.156566e+05, 4.249197e+10
1.157722e+05, 4.209250e+10
1.158880e+05, 4.153307e+10
1.160039e+05, 4.076484e+10
1.161199e+05, 4.054609e+10
1.162360e+05, 4.152892e+10
1.163522e+05, 4.136270e+10
1.164686e+05, 4.159337e+10
1.165851e+05, 4.166584e+10
1.167016e+05, 4.135381e+10
1.168183e+05, 4.094576e+10
1.169352e+05, 4.085741e+10
1.170521e+05, 4.074733e+10
1.171691e+05, 4.030170e+10
1.172863e+05, 4.001398e+10
1.174036e+05, 3.952373e+10
1.175210e+05, 3.979723e+10
1.176385e+05, 3.957488e+10
1.177562e+05, 3.948998e+10
1.178739e+05, 3.959620e+10
1.179918e+05, 3.869496e+10
1.181098e+05, 3.900612e+10
1.182279e+05, 3.826413e+10
1.183461e+05, 3.798905e+10
1.184645e+05, 3.917032e+10
1.185829e+05, 3.797072e+10
1.187015e+05, 3.842448e+10
1.188202e+05, 3.866904e+10
1.189390e+05, 3.846272e+10
1.190580e+05, 3.722593e+10
1.191770e+05, 3.728039e+10
1.192962e+05, 3.675879e+10
1.194155e+05, 3.809383e+10
1.195349e+05, 3.739672e+10
1.196545e+05, 3.694205e+10
1.197741e+05, 3.746525e+10
1.198939e+05, 3.705469e+10
1.200138e+05, 3.669448e+10
1.201338e+05, 3.668654e+10
1.202539e+05, 3.603157e+10
1.203742e+05, 3.685725e+10
1.204946e+05, 3.571039e+10
1.206151e+05, 3.561153e+10
1.207357e+05, 3.635742e+10
1.208564e+05, 3.539916e+10
1.209773e+05, 3.522507e+10
1.210982e+05, 3.495112e+10
1.212193e+05, 3.492601e+10
1.213406e+05, 3.565110e+10
1.214619e+05, 3.466768e+10
1.215834e+05, 3.437761e+10
1.217049e+05, 3.508731e+10
1.218266e+05, 3.479772e+10
1.219485e+05, 3.458463e+10
1.220704e+05, 3.452421e+10
1.221925e+05, 3.420739e+10
1.223147e+05, 3.464697e+10
1.224370e+05, 3.391965e+10
1.225594e+05, 3.346402e+10
1.226820e+05, 3.281600e+10
1.228047e+05, 3.285105e+10
1.229275e+05, 3.353793e+10
1.230504e+05, 3.357780e+10
1.231735e+05, 3.270855e+10
1.232966e+05, 3.319169e+10
1.234199e+05, 3.294876e+10
1.235433e+05, 3.266745e+10
1.236669e+05, 3.216947e+10
1.237906e+05, 3.268096e+10
1.239144e+05, 3.288242e+10
1.240383e+05, 3.215188e+10
1.241623e+05, 3.170551e+10
1.242865e+05, 3.138093e+10
1.244108e+05, 3.125700e+10
1.245352e+05, 3.164067e+10
1.246597e+05, 3.192181e+10
1.247844e+05, 3.144409e+10
1.249091e+05, 3.162698e+10
1.250341e+05, 3.130065e+10
1.251591e+05, 3.131525e+10
1.252842e+05, 3.076913e+10
1.254095e+05, 3.071967e+10
1.255349e+05, 3.043216e+10
1.256605e+05, 3.030678e+10
1.257861e+05, 3.019445e+10
1.259119e+05, 3.040325e+10
1.260378e+05, 3.029688e+10
1.261639e+05, 3.056277e+10
1.262900e+05, 3.020912e+10
1.264163e+05, 2.909177e+10
1.265427e+05, 2.903361e+10
1.266693e+05, 2.871050e+10
1.267960e+05, 2.953891e+10
1.269227e+05, 2.982585e+10
1.270497e+05, 2.945627e+10
1.271767e+05, 2.950848e+10
1.273039e+05, 2.922993e+10
1.274312e+05, 2.955219e+10
1.275586e+05, 2.899895e+10
1.276862e+05, 2.877891e+10
1.278139e+05, 2.831889e+10
1.279417e+05, 2.801753e+10
1.280696e+05, 2.815659e+10
1.281977e+05, 2.844893e+10
1.283259e+05, 2.842187e+10
1.284542e+05, 2.803154e+10
1.285827e+05, 2.823552e+10
1.287113e+05, 2.837611e+10
1.288400e+05, 2.829865e+10
1.289688e+05, 2.775613e+10
1.290978e+05, 2.779415e+10
1.292269e+05, 2.721616e+10
1.293561e+05, 2.728909e+10
1.294855e+05, 2.737038e+10
1.296149e+05, 2.710376e+10
1.297446e+05, 2.701641e+10
1.298743e+05, 2.675952e+10
1.300042e+05, 2.681334e+10
1.301342e+05, 2.688551e+10
1.302643e+05, 2.634923e+10
1.303946e+05, 2.657932e+10
1.305250e+05, 2.648735e+10
1.306555e+05, 2.617179e+10
1.307862e+05, 2.600500e+10
1.309169e+05, 2.545721e+10
1.310479e+05, 2.634185e+10
1.311789e+05, 2.611909e+10
1.313101e+05, 2.607839e+10
1.314414e+05, 2.555077e+10
1.315728e+05, 2.564589e+10
1.317044e+05, 2.535963e+10
1.318361e+05, 2.496647e+10
1.319680e+05, 2.528599e+10
1.320999e+05, 2.463498e+10
1.322320e+05, 2.517252e+10
1.323643e+05, 2.514934e+10
1.324966e+05, 2.501468e+10
1.326291e+05, 2.453205e+10
1.327617e+05, 2.504497e+10
1.328945e+05, 2.461646e+10
1.330274e+05, 2.468106e+10
1.331604e+05, 2.433053e+10
1.332936e+05, 2.435744e+10
1.334269e+05, 2.402499e+10
1.335603e+05, 2.386418e+10
1.336939e+05, 2.405598e+10
1.338276e+05, 2.405694e+10
1.339614e+05, 2.417135e+10
1.340954e+05, 2.419947e+10
1.342294e+05, 2.362235e+10
1.343637e+05, 2.377584e+10
1.344980e+05, 2.336271e+10
1.346325e+05, 2.355595e+10
1.347672e+05, 2.335841e+10
1.349019e+05, 2.328552e+10
1.350368e+05, 2.344637e+10
1.351719e+05, 2.332966e+10
1.353070e+05, 2.266897e+10
1.354424e+05, 2.209764e+10
1.355778e+05, 2.233249e+10
1.357134e+05, 2.252235e+10
1.358491e+05, 2.272872e+10
1.359849e+05, 2.252068e+10
1.361209e+05, 2.212632e+10
1.362570e+05, 2.235714e+10
1.363933e+05, 2.183779e+10
1.365297e+05, 2.204840e+10
1.366662e+05, 2.237829e+10
1.368029e+05, 2.232575e+10
1.369397e+05, 2.170748e+10
1.370766e+05, 2.179438e+10
1.372137e+05, 2.165600e+10
1.373509e+05, 2.186758e+10
1.374883e+05, 2.156462e+10
1.376258e+05, 2.092730e+10
1.377634e+05, 2.119321e+10
1.379012e+05, 2.141690e+10
1.380391e+05, 2.158968e+10
1.381771e+05, 2.126222e+10
1.383153e+05, 2.127101e+10
1.384536e+05, 2.096871e+10
1.385920e+05, 2.089159e+10
1.387306e+05, 2.106969e+10
1.388694e+05, 2.089825e+10
1.390082e+05, 2.083465e+10
1.391472e+05, 2.077894e+10
1.392864e+05, 2.080811e+10
1.394257e+05, 2.065046e+10
1.395651e+05, 2.055718e+10
1.397047e+05, 2.011158e+10
1.398444e+05, 2.024161e+10
1.399842e+05, 2.013218e+10
1.401242e+05, 2.004508e+10
1.402643e+05, 2.015224e+10
1.404046e+05, 1.983188e+10
1.405450e+05, 1.959957e+10
1.406855e+05, 1.945741e+10
1.408262e+05, 1.947780e+10
1.409670e+05, 1.967560e+10
1.411080e+05, 1.953041e+10
1.412491e+05, 1.894835e+10
1.413904e+05, 1.920247e+10
1.415318e+05, 1.923238e+10
1.416733e+05, 1.898225e+10
1.418150e+05, 1.916992e+10
1.419568e+05, 1.895558e+10
1.420987e+05, 1.860103e+10
1.422408e+05, 1.882752e+10
1.423831e+05, 1.868170e+10
1.425255e+05, 1.895056e+10
1.426680e+05, 1.880801e+10
1.428107e+05, 1.876410e+10
1.429535e+05, 1.866269e+10
1.430964e+05, 1.871833e+10
1.432395e+05, 1.827842e+10
1.433828e+05, 1.834916e+10
1.435261e+05, 1.838448e+10
1.436697e+05, 1.831425e+10
1.438133e+05, 1.821098e+10
1.439571e+05, 1.806275e+10
1.441011e+05, 1.785012e+10
1.442452e+05, 1.789701e+10
1.443894e+05, 1.792785e+10
1.445338e+05, 1.773796e+10
1.446784e+05, 1.767952e+10
1.448231e+05, 1.757259e+10
1.449679e+05, 1.740302e+10
1.451128e+05, 1.775861e+10
1.452580e+05, 1.744232e+10
1.454032e+05, 1.750843e+10
1.455486e+05, 1.742160e+10
1.456942e+05, 1.748984e+10
1.458399e+05, 1.716064e+10
1.459857e+05, 1.715884e+10
1.461317e+05, 1.730334e+10
1.462778e+05, 1.637059e+10
1.464241e+05, 1.642820e+10
1.465705e+05, 1.606456e+10
1.467171e+05, 1.661723e+10
1.468638e+05, 1.663736e+10
1.470107e+05, 1.657198e+10
1.471577e+05, 1.631058e+10
1.473048e+05, 1.633261e+10
1.474521e+05, 1.645594e+10
1.475996e+05, 1.658643e+10
1.477472e+05, 1.636845e+10
1.478949e+05, 1.632641e+10
1.480428e+05, 1.647808e+10
1.481909e+05, 1.629624e+10
1.483391e+05, 1.607048e+10
1.484874e+05, 1.606052e+10
1.486359e+05, 1.585513e+10
1.487845e+05, 1.576462e+10
1.489333e+05, 1.574396e+10
1.490823e+05, 1.583823e+10
1.492313e+05, 1.562598e+10
1.493806e+05, 1.579641e+10
1.495299e+05, 1.562743e+10
1.496795e+05, 1.547065e+10
1.498292e+05, 1.535398e+10
1.499790e+05, 1.556585e+10
1.501290e+05, 1.534536e+10
1.502791e+05, 1.541231e+10
1.504294e+05, 1.497359e+10
1.505798e+05, 1.518807e+10
1.507304e+05, 1.530223e+10
1.508811e+05, 1.508888e+10
1.510320e+05, 1.496125e+10
1.511830e+05, 1.498737e+10
1.513342e+05, 1.475949e+10
1.514855e+05, 1.495537e+10
1.516370e+05, 1.491707e+10
1.517887e+05, 1.443685e+10
1.519405e+05, 1.466668e+10
1.520924e+05, 1.481997e+10
1.522445e+05, 1.442265e+10
1.523967e+05, 1.452698e+10
1.525491e+05, 1.409153e+10
1.527017e+05, 1.411765e+10
1.528544e+05, 1.397893e+10
1.530072e+05, 1.402822e+10
1.531602e+05, 1.399035e+10
1.533134e+05, 1.407500e+10
1.534667e+05, 1.402212e+10
1.536202e+05, 1.400872e+10
1.537738e+05, 1.390182e+10
1.539276e+05, 1.382968e+10
1.540815e+05, 1.398588e+10
1.542356e+05, 1.366470e+10
1.543898e+05, 1.369789e+10
1.545442e+05, 1.364882e+10
1.546988e+05, 1.359727e+10
1.548534e+05, 1.362217e+10
1.550083e+05, 1.361880e+10
1.551633e+05, 1.355419e+10
1.553185e+05, 1.347887e+10
1.554738e+05, 1.343349e+10
1.556293e+05, 1.327258e+10
1.557849e+05, 1.321350e+10
1.559407e+05, 1.326839e+10
1.560966e+05, 1.322474e+10
1.562527e+05, 1.321608e+10
1.564090e+05, 1.299924e+10
1.565654e+05, 1.305763e+10
1.567219e+05, 1.310140e+10
1.568787e+05, 1.298104e+10
1.570355e+05, 1.293152e+10
1.571926e+05, 1.282083e+10
1.573498e+05, 1.287396e+10
1.575071e+05, 1.264067e+10
1.576646e+05, 1.263557e+10
1.578223e+05, 1.276069e+10
1.579801e+05, 1.261633e+10
1.581381e+05, 1.252122e+10
1.582962e+05, 1.258640e+10
1.584545e+05, 1.246614e+10
1.586130e+05, 1.227694e+10
1.587716e+05, 1.245960e+10
1.589304e+05, 1.204343e+10
1.590893e+05, 1.205014e+10
1.592484e+05, 1.182945e+10
1.594076e+05, 1.220279e+10
1.595670e+05, 1.190481e+10
1.597266e+05, 1.192814e+10
1.598863e+05, 1.175477e+10
1.600462e+05, 1.179882e+10
1.602063e+05, 1.158413e+10
1.603665e+05, 1.182331e+10
1.605268e+05, 1.170509e+10
1.606874e+05, 1.183440e+10
1.608481e+05, 1.166405e+10
1.610089e+05, 1.159215e+10
1.611699e+05, 1.150359e+10
1.613311e+05, 1.164953e+10
1.614924e+05, 1.145990e+10
1.616539e+05, 1.140327e+10
1.618156e+05, 1.147499e+10
1.619774e+05, 1.141668e+10
1.621394e+05, 1.126047e+10
1.623015e+05, 1.140687e+10
1.624638e+05, 1.138444e+10
1.626263e+05, 1.119147e+10
1.627889e+05, 1.111422e+10
1.629517e+05, 1.122937e+10
1.631146e+05, 1.117801e+10
1.632777e+05, 1.101907e+10
1.634410e+05, 1.117030e+10
1.636045e+05, 1.116990e+10
1.637681e+05, 1.093878e+10
1.639318e+05, 1.071608e+10
1.640958e+05, 1.082015e+10
1.642599e+05, 1.084159e+10
1.644241e+05, 1.075384e+10
1.645885e+05, 1.083521e+10
1.647531e+05, 1.049666e+10
1.649179e+05, 1.065941e+10
1.650828e+05, 1.068502e+10
1.652479e+05, 1.058978e+10
1.654131e+05, 1.053660e+10
1.655785e+05, 1.027464e+10
1.657441e+05, 1.036129e+10
1.659099e+05, 1.035577e+10
1.660758e+05, 1.024235e+10
1.662419e+05, 1.010280e+10
1.664081e+05, 1.009943e+10
1.665745e+05, 1.010271e+10
1.667411e+05, 1.017570e+10
1.669078e+05, 1.020574e+10
1.670747e+05, 1.001084e+10
1.672418e+05, 9.935920e+09
1.674090e+05, 1.010389e+10
1.675765e+05, 9.882416e+09
1.677440e+05, 1.010496e+10
1.679118e+05, 9.915255e+09
1.680797e+05, 9.867921e+09
1.682478e+05, 9.784778e+09
1.684160e+05, 9.503288e+09
1.685844e+05, 9.852869e+09
1.687530e+05, 9.537255e+09
1.689218e+05, 9.675077e+09
1.690907e+05, 9.694730e+09
1.692598e+05, 9.516817e+09
1.694290e+05, 9.624280e+09
1.695985e+05, 9.634637e+09
1.697681e+05, 9.479901e+09
1.699378e+05, 9.447825e+09
1.701078e+05, 9.504286e+09
1.702779e+05, 9.428474e+09
1.704482e+05, 9.438017e+09
1.706186e+05, 9.368458e+09
1.707892e+05, 9.256049e+09
1.709600e+05, 9.282718e+09
1.711310e+05, 9.249139e+09
1.713021e+05, 9.088047e+09
1.714734e+05, 9.132221e+09
1.716449e+05, 9.157357e+09
1.718165e+05, 9.069955e+09
1.719883e+05, 8.998059e+09
1.721603e+05, 8.991512e+09
1.723325e+05, 8.878806e+09
1.725048e+05, 8.825080e+09
1.726773e+05, 8.834030e+09
1.728500e+05, 8.818216e+09
1.730229e+05, 8.827160e+09
1.731959e+05, 8.736860e+09
1.733691e+05, 8.707372e+09
1.735424e+05, 8.579859e+09
1.737160e+05, 8.612939e+09
1.738897e+05, 8.592106e+09
1.740636e+05, 8.509394e+09
1.742377e+05, 8.593953e+09
1.744119e+05, 8.501654e+09
1.745863e+05, 8.516681e+09
1.747609e+05, 8.426163e+09
1.749357e+05, 8.462780e+09
1.751106e+05, 8.448306e+09
1.752857e+05, 8.200347e+09
1.754610e+05, 8.251947e+09
1.756364e+05, 8.255212e+09
1.758121e+05, 8.279130e+09
1.759879e+05, 8.232251e+09
1.761639e+05, 8.217683e+09
1.763400e+05, 8.116234e+09
1.765164e+05, 8.127570e+09
1.766929e+05, 8.129506e+09
1.768696e+05, 8.121691e+09
1.770465e+05, 8.058812e+09
1.772235e+05, 7.992733e+09
1.774007e+05, 7.955663e+09
1.775781e+05, 7.974273e+09
1.777557e+05, 7.772297e+09
1.779335e+05, 7.957922e+09
1.781114e+05, 7.823519e+09
1.782895e+05, 7.850614e+09
1.784678e+05, 7.822492e+09
1.786463e+05, 7.825823e+09
1.788249e+05, 7.787334e+09
1.790037e+05, 7.802177e+09
1.791827e+05, 7.687167e+09
1.793619e+05, 7.597616e+09
1.795413e+05, 7.610859e+09
1.797208e+05, 7.646082e+09
1.799006e+05, 7.731700e+09
1.800805e+05, 7.576508e+09
1.802605e+05, 7.437895e+09
1.804408e+05, 7.528506e+09
1.806212e+05, 7.441052e+09
1.808019e+05, 7.359913e+09
1.809827e+05, 7.397776e+09
1.811636e+05, 7.420844e+09
1.813448e+05, 7.305920e+09
1.815262e+05, 7.176883e+09
1.817077e+05, 7.153691e+09
1.818894e+05, 7.160231e+09
1.820713e+05, 7.265324e+09
1.822533e+05, 7.202473e+09
1.824356e+05, 7.121772e+09
1.826180e+05, 7.155804e+09
1.828007e+05, 7.027768e+09
1.829835e+05, 7.061578e+09
1.831664e+05, 7.004382e+09
1.833496e+05, 7.101665e+09
1.835330e+05, 7.042737e+09
1.837165e+05, 6.975657e+09
1.839002e+05, 6.955868e+09
1.840841e+05, 6.908848e+09
1.842682e+05, 6.841843e+09
1.844525e+05, 6.949375e+09
1.846369e+05, 6.847246e+09
1.848215e+05, 6.849528e+09
1.850064e+05, 6.677859e+09
1.851914e+05, 6.705670e+09
1.853766e+05, 6.651733e+09
1.855619e+05, 6.646213e+09
1.857475e+05, 6.690845e+09
1.859333e+05, 6.568541e+09
1.861192e+05, 6.604196e+09
1.863053e+05, 6.563302e+09
1.864916e+05, 6.585960e+09
1.866781e+05, 6.533504e+09
1.868648e+05, 6.575622e+09
1.870516e+05, 6.514454e+09
1.872387e+05, 6.395314e+09
1.874259e+05, 6.478812e+09
1.876134e+05, 6.357616e+09
1.878010e+05, 6.408145e+09
1.879888e+05, 6.384315e+09
1.881768e+05, 6.360190e+09
1.883649e+05, 6.293923e+09
1.885533e+05, 6.263299e+09
1.887419e+05, 6.218950e+09
1.889306e+05, 6.213012e+09
1.891195e+05, 6.278663e+09
1.893086e+05, 6.194784e+09
1.894980e+05, 6.140312e+09
1.896875e+05, 6.113302e+09
1.898771e+05, 6.124244e+09
1.900670e+05, 6.042909e+09
1.902571e+05, 6.123456e+09
1.904473e+05, 5.959618e+09
1.906378e+05, 6.080199e+09
1.908284e+05, 5.947505e+09
1.910193e+05, 6.047953e+09
1.912103e+05, 6.007552e+09
1.914015e+05, 5.940837e+09
1.915929e+05, 5.989938e+09
1.917845e+05, 5.820421e+09
1.919763e+05, 5.844692e+09
1.921682e+05, 5.761972e+09
1.923604e+05, 5.783712e+09
1.925528e+05, 5.797280e+09
1.927453e+05, 5.769138e+09
1.929381e+05, 5.719820e+09
1.931310e+05, 5.750681e+09
1.933241e+05, 5.688731e+09
1.935175e+05, 5.664703e+09
1.937110e+05, 5.680123e+09
1.939047e+05, 5.707070e+09
1.940986e+05, 5.609429e+09
1.942927e+05, 5.550567e+09
1.944870e+05, 5.578405e+09
1.946815e+05, 5.592160e+09
1.948762e+05, 5.534838e+09
1.950710e+05, 5.595634e+09
1.952661e+05, 5.518777e+09
1.954614e+05, 5.508709e+09
1.956568e+05, 5.400649e+09
1.958525e+05, 5.362870e+09
1.960483e+05, 5.418747e+09
1.962444e+05, 5.297294e+09
1.964406e+05, 5.292962e+09
1.966371e+05, 5.334809e+09
1.968337e+05, 5.331232e+09
1.970305e+05, 5.355221e+09
1.972276e+05, 5.325912e+09
1.974248e+05, 5.246927e+09
1.976222e+05, 5.259312e+09
1.978198e+05, 5.235800e+09
1.980177e+05, 5.170719e+09
1.982157e+05, 5.148649e+09
1.984139e+05, 5.157449e+09
1.986123e+05, 5.154387e+09
1.988109e+05, 5.116021e+09
1.990097e+05, 5.083941e+09
1.992087e+05, 5.075490e+09
1.994080e+05, 5.011180e+09
1.996074e+05, 5.023648e+09
1.998070e+05, 5.072538e+09