wavelength[Angstrom], flux[erg / (cm3 s)]
1.000000e+03, 9.871112e-07
1.001000e+03, 6.696964e-07
1.002001e+03, 4.182504e-07
1.003003e+03, 5.229032e-07
1.004006e+03, 6.691306e-07
1.005010e+03, 6.264228e-07
1.006015e+03, 4.078817e-07
1.007021e+03, 7.837468e-07
1.008028e+03, 5.905180e-07
1.009036e+03, 5.040697e-07
1.010045e+03, 7.331872e-07
1.011055e+03, 8.386832e-07
1.012066e+03, 7.555438e-07
1.013078e+03, 7.935726e-07
1.014091e+03, 5.649250e-07
1.015105e+03, 1.324371e-06
1.016121e+03, 1.385760e-06
1.017137e+03, 8.680161e-07
1.018154e+03, 9.786741e-07
1.019172e+03, 1.782323e-06
1.020191e+03, 2.070004e-06
1.021211e+03, 1.248073e-06
1.022233e+03, 1.381361e-06
1.023255e+03, 1.481799e-06
1.024278e+03, 1.395985e-06
1.025302e+03, 2.193560e-07
1.026328e+03, 4.443224e-07
1.027354e+03, 2.051153e-06
1.028381e+03, 1.652354e-06
1.029410e+03, 1.739054e-06
1.030439e+03, 2.303543e-06
1.031470e+03, 2.402349e-06
1.032501e+03, 4.977440e-06
1.033533e+03, 2.595677e-06
1.034567e+03, 4.360051e-06
1.035602e+03, 3.134991e-06
1.036637e+03, 2.872379e-06
1.037674e+03, 6.848522e-06
1.038712e+03, 4.914929e-06
1.039750e+03, 4.104746e-06
1.040790e+03, 3.830989e-06
1.041831e+03, 6.271738e-06
1.042873e+03, 7.920487e-06
1.043915e+03, 6.480843e-06
1.044959e+03, 8.416038e-06
1.046004e+03, 7.139757e-06
1.047050e+03, 8.007740e-06
1.048097e+03, 8.290462e-06
1.049145e+03, 8.372051e-06
1.050195e+03, 6.085485e-06
1.051245e+03, 8.883838e-06
1.052296e+03, 5.708299e-06
1.053348e+03, 9.548262e-06
1.054402e+03, 9.598010e-06
1.055456e+03, 1.096729e-05
1.056512e+03, 9.172069e-06
1.057568e+03, 1.028134e-05
1.058626e+03, 9.645384e-06
1.059684e+03, 1.554551e-05
1.060744e+03, 2.080765e-05
1.061805e+03, 1.394501e-05
1.062867e+03, 1.778092e-05
1.063929e+03, 2.588760e-05
1.064993e+03, 1.045528e-05
1.066058e+03, 2.239970e-05
1.067124e+03, 1.669920e-05
1.068191e+03, 2.885501e-05
1.069260e+03, 3.088164e-05
1.070329e+03, 2.097005e-05
1.071399e+03, 2.546783e-05
1.072471e+03, 2.755820e-05
1.073543e+03, 3.211247e-05
1.074617e+03, 2.717392e-05
1.075691e+03, 5.419086e-05
1.076767e+03, 4.094308e-05
1.077844e+03, 2.414796e-05
1.078922e+03, 3.376723e-05
1.080001e+03, 5.491582e-05
1.081081e+03, 3.851005e-05
1.082162e+03, 6.337998e-05
1.083244e+03, 6.958449e-05
1.084327e+03, 6.838350e-05
1.085411e+03, 4.651337e-05
1.086497e+03, 6.452541e-05
1.087583e+03, 6.986058e-05
1.088671e+03, 7.569534e-05
1.089759e+03, 6.362971e-05
1.090849e+03, 1.012987e-04
1.091940e+03, 1.048743e-04
1.093032e+03, 9.496534e-05
1.094125e+03, 5.523299e-05
1.095219e+03, 1.075525e-04
1.096314e+03, 1.190379e-04
1.097411e+03, 1.035932e-04
1.098508e+03, 1.127232e-04
1.099607e+03, 8.234313e-05
1.100706e+03, 7.803524e-05
1.101807e+03, 1.053813e-04
1.102909e+03, 2.862317e-04
1.104012e+03, 1.523941e-04
1.105116e+03, 1.913744e-04
1.106221e+03, 2.227814e-04
1.107327e+03, 2.319733e-04
1.108434e+03, 1.270569e-04
1.109543e+03, 1.767440e-04
1.110652e+03, 2.420325e-04
1.111763e+03, 3.368403e-04
1.112875e+03, 3.022535e-04
1.113988e+03, 2.094417e-04
1.115102e+03, 2.232091e-04
1.116217e+03, 1.648645e-04
1.117333e+03, 4.502506e-04
1.118450e+03, 4.000987e-04
1.119569e+03, 2.710074e-04
1.120688e+03, 3.299256e-04
1.121809e+03, 5.438199e-04
1.122931e+03, 5.035788e-04
1.124054e+03, 3.751229e-04
1.125178e+03, 4.019596e-04
1.126303e+03, 1.006777e-03
1.127429e+03, 6.745931e-04
1.128557e+03, 6.291615e-04
1.129685e+03, 5.812327e-04
1.130815e+03, 8.007815e-04
1.131946e+03, 7.223013e-04
1.133078e+03, 9.283000e-04
1.134211e+03, 7.222256e-04
1.135345e+03, 6.625792e-04
1.136480e+03, 1.031654e-03
1.137617e+03, 1.220091e-03
1.138754e+03, 1.062781e-03
1.139893e+03, 7.926306e-04
1.141033e+03, 1.394412e-03
1.142174e+03, 1.537993e-03
1.143316e+03, 1.185905e-03
1.144460e+03, 1.025803e-03
1.145604e+03, 1.192178e-03
1.146750e+03, 1.315153e-03
1.147896e+03, 1.607747e-03
1.149044e+03, 1.307352e-03
1.150193e+03, 1.547439e-03
1.151344e+03, 1.288131e-03
1.152495e+03, 1.760629e-03
1.153647e+03, 1.988001e-03
1.154801e+03, 1.819303e-03
1.155956e+03, 1.837996e-03
1.157112e+03, 2.509258e-03
1.158269e+03, 2.211364e-03
1.159427e+03, 1.812715e-03
1.160587e+03, 2.923387e-03
1.161747e+03, 1.316857e-03
1.162909e+03, 2.458415e-03
1.164072e+03, 2.252005e-03
1.165236e+03, 2.261855e-03
1.166401e+03, 1.749692e-03
1.167568e+03, 2.474643e-03
1.168735e+03, 3.025052e-03
1.169904e+03, 2.664421e-03
1.171074e+03, 2.852048e-03
1.172245e+03, 3.050221e-03
1.173417e+03, 3.599396e-03
1.174590e+03, 3.373532e-03
1.175765e+03, 2.942290e-03
1.176941e+03, 4.394847e-03
1.178118e+03, 5.189223e-03
1.179296e+03, 4.172347e-03
1.180475e+03, 4.041029e-03
1.181656e+03, 4.769623e-03
1.182837e+03, 4.836252e-03
1.184020e+03, 5.157529e-03
1.185204e+03, 4.851394e-03
1.186389e+03, 5.003388e-03
1.187576e+03, 6.087301e-03
1.188763e+03, 6.563434e-03
1.189952e+03, 7.225177e-03
1.191142e+03, 6.992158e-03
1.192333e+03, 5.758411e-03
1.193526e+03, 6.128585e-03
1.194719e+03, 9.438809e-03
1.195914e+03, 1.231595e-02
1.197110e+03, 2.897225e-02
1.198307e+03, 1.291285e-02
1.199505e+03, 1.812693e-02
1.200705e+03, 1.811717e-02
1.201905e+03, 1.321826e-02
1.203107e+03, 1.858928e-02
1.204310e+03, 1.685560e-02
1.205515e+03, 1.549920e-02
1.206720e+03, 1.856275e-02
1.207927e+03, 1.542097e-02
1.209135e+03, 1.512570e-02
1.210344e+03, 8.750582e-03
1.211554e+03, 1.026618e-02
1.212766e+03, 7.669531e-03
1.213979e+03, 4.125255e-03
1.215193e+03, 7.685774e-04
1.216408e+03, 1.311846e-03
1.217624e+03, 5.734017e-03
1.218842e+03, 9.921053e-03
1.220061e+03, 1.444566e-02
1.221281e+03, 2.014268e-02
1.222502e+03, 2.403575e-02
1.223724e+03, 3.310478e-02
1.224948e+03, 3.036241e-02
1.226173e+03, 5.228183e-02
1.227399e+03, 3.865194e-02
1.228627e+03, 5.189566e-02
1.229855e+03, 4.137148e-02
1.231085e+03, 6.793412e-02
1.232316e+03, 1.012160e-01
1.233549e+03, 8.947301e-02
1.234782e+03, 1.029195e-01
1.236017e+03, 7.611731e-02
1.237253e+03, 8.193677e-02
1.238490e+03, 1.210959e-01
1.239729e+03, 1.639129e-01
1.240968e+03, 1.027665e-01
1.242209e+03, 1.062878e-01
1.243452e+03, 1.473790e-01
1.244695e+03, 1.646487e-01
1.245940e+03, 1.120817e-01
1.247186e+03, 1.672856e-01
1.248433e+03, 1.939692e-01
1.249681e+03, 1.921941e-01
1.250931e+03, 1.745601e-01
1.252182e+03, 2.141022e-01
1.253434e+03, 2.115957e-01
1.254688e+03, 2.761534e-01
1.255942e+03, 1.723121e-01
1.257198e+03, 1.571707e-01
1.258455e+03, 1.661899e-01
1.259714e+03, 2.464024e-01
1.260974e+03, 2.155860e-01
1.262235e+03, 2.435424e-01
1.263497e+03, 2.369093e-01
1.264760e+03, 2.724828e-01
1.266025e+03, 2.588418e-01
1.267291e+03, 2.606052e-01
1.268558e+03, 2.338593e-01
1.269827e+03, 3.860117e-01
1.271097e+03, 3.018239e-01
1.272368e+03, 3.098114e-01
1.273640e+03, 4.248663e-01
1.274914e+03, 2.965633e-01
1.276189e+03, 3.281560e-01
1.277465e+03, 3.688838e-01
1.278742e+03, 3.325576e-01
1.280021e+03, 3.166480e-01
1.281301e+03, 4.994544e-01
1.282582e+03, 3.632173e-01
1.283865e+03, 5.338032e-01
1.285149e+03, 5.944764e-01
1.286434e+03, 3.937473e-01
1.287720e+03, 5.518779e-01
1.289008e+03, 6.646127e-01
1.290297e+03, 6.795300e-01
1.291588e+03, 7.308848e-01
1.292879e+03, 5.552691e-01
1.294172e+03, 8.415867e-01
1.295466e+03, 8.705774e-01
1.296762e+03, 9.522027e-01
1.298058e+03, 8.651483e-01
1.299356e+03, 9.143990e-01
1.300656e+03, 1.247689e+00
1.301956e+03, 1.398052e+00
1.303258e+03, 1.626261e+00
1.304562e+03, 1.384787e+00
1.305866e+03, 1.493242e+00
1.307172e+03, 1.543545e+00
1.308479e+03, 1.756854e+00
1.309788e+03, 1.727939e+00
1.311098e+03, 1.356119e+00
1.312409e+03, 1.220899e+00
1.313721e+03, 1.351414e+00
1.315035e+03, 1.141193e+00
1.316350e+03, 1.306596e+00
1.317666e+03, 1.552794e+00
1.318984e+03, 1.344389e+00
1.320303e+03, 1.481091e+00
1.321623e+03, 1.527464e+00
1.322945e+03, 1.349045e+00
1.324268e+03, 1.439597e+00
1.325592e+03, 1.602252e+00
1.326918e+03, 1.594761e+00
1.328244e+03, 1.810933e+00
1.329573e+03, 1.941278e+00
1.330902e+03, 2.403226e+00
1.332233e+03, 2.371607e+00
1.333565e+03, 2.360642e+00
1.334899e+03, 2.540443e+00
1.336234e+03, 2.507784e+00
1.337570e+03, 2.712098e+00
1.338908e+03, 2.740481e+00
1.340247e+03, 2.905938e+00
1.341587e+03, 3.314785e+00
1.342928e+03, 2.672194e+00
1.344271e+03, 3.474654e+00
1.345616e+03, 2.758814e+00
1.346961e+03, 2.972896e+00
1.348308e+03, 3.680007e+00
1.349656e+03, 3.428852e+00
1.351006e+03, 3.811575e+00
1.352357e+03, 4.567995e+00
1.353709e+03, 5.054196e+00
1.355063e+03, 5.463694e+00
1.356418e+03, 4.883905e+00
1.357775e+03, 5.355937e+00
1.359132e+03, 5.677773e+00
1.360492e+03, 5.511256e+00
1.361852e+03, 5.565589e+00
1.363214e+03, 5.284561e+00
1.364577e+03, 6.099180e+00
1.365942e+03, 5.142666e+00
1.367308e+03, 5.910631e+00
1.368675e+03, 5.278655e+00
1.370044e+03, 6.149133e+00
1.371414e+03, 5.823815e+00
1.372785e+03, 6.437757e+00
1.374158e+03, 6.137169e+00
1.375532e+03, 7.278088e+00
1.376908e+03, 6.989091e+00
1.378284e+03, 8.424504e+00
1.379663e+03, 8.221113e+00
1.381042e+03, 9.364397e+00
1.382423e+03, 9.970405e+00
1.383806e+03, 1.008877e+01
1.385190e+03, 1.068123e+01
1.386575e+03, 1.206168e+01
1.387961e+03, 1.303737e+01
1.389349e+03, 1.457986e+01
1.390739e+03, 1.457671e+01
1.392130e+03, 1.670714e+01
1.393522e+03, 1.707152e+01
1.394915e+03, 1.933723e+01
1.396310e+03, 2.120211e+01
1.397706e+03, 2.324471e+01
1.399104e+03, 2.582062e+01
1.400503e+03, 2.944761e+01
1.401904e+03, 3.204775e+01
1.403306e+03, 3.140439e+01
1.404709e+03, 3.532943e+01
1.406114e+03, 3.852943e+01
1.407520e+03, 4.560330e+01
1.408927e+03, 3.978462e+01
1.410336e+03, 3.916329e+01
1.411747e+03, 5.239918e+01
1.413158e+03, 4.217542e+01
1.414571e+03, 5.066034e+01
1.415986e+03, 4.749744e+01
1.417402e+03, 6.113864e+01
1.418819e+03, 5.548472e+01
1.420238e+03, 7.084901e+01
1.421658e+03, 6.486511e+01
1.423080e+03, 6.016537e+01
1.424503e+03, 6.321681e+01
1.425928e+03, 8.040373e+01
1.427354e+03, 6.949044e+01
1.428781e+03, 7.583305e+01
1.430210e+03, 8.154775e+01
1.431640e+03, 8.964962e+01
1.433072e+03, 7.961063e+01
1.434505e+03, 8.787378e+01
1.435939e+03, 9.660015e+01
1.437375e+03, 9.677609e+01
1.438813e+03, 1.094887e+02
1.440251e+03, 1.049875e+02
1.441692e+03, 1.094059e+02
1.443133e+03, 1.118699e+02
1.444576e+03, 1.209428e+02
1.446021e+03, 1.216666e+02
1.447467e+03, 1.097510e+02
1.448914e+03, 1.424258e+02
1.450363e+03, 1.524535e+02
1.451814e+03, 1.384879e+02
1.453266e+03, 1.518838e+02
1.454719e+03, 1.534397e+02
1.456174e+03, 1.661550e+02
1.457630e+03, 1.538904e+02
1.459087e+03, 1.554432e+02
1.460546e+03, 1.545919e+02
1.462007e+03, 1.859026e+02
1.463469e+03, 1.941050e+02
1.464932e+03, 1.917039e+02
1.466397e+03, 2.324965e+02
1.467864e+03, 2.188870e+02
1.469332e+03, 2.201212e+02
1.470801e+03, 2.510243e+02
1.472272e+03, 2.132903e+02
1.473744e+03, 2.104483e+02
1.475218e+03, 2.650604e+02
1.476693e+03, 2.745261e+02
1.478170e+03, 2.576993e+02
1.479648e+03, 2.754334e+02
1.481128e+03, 2.963377e+02
1.482609e+03, 3.092521e+02
1.484091e+03, 3.197747e+02
1.485575e+03, 3.575195e+02
1.487061e+03, 3.061406e+02
1.488548e+03, 3.410055e+02
1.490037e+03, 3.809593e+02
1.491527e+03, 3.803368e+02
1.493018e+03, 3.542993e+02
1.494511e+03, 3.574534e+02
1.496006e+03, 4.402185e+02
1.497502e+03, 4.262586e+02
1.498999e+03, 4.603130e+02
1.500498e+03, 4.830433e+02
1.501999e+03, 4.809756e+02
1.503501e+03, 4.903667e+02
1.505004e+03, 4.991058e+02
1.506509e+03, 5.683659e+02
1.508016e+03, 5.702547e+02
1.509524e+03, 5.879798e+02
1.511033e+03, 5.851906e+02
1.512544e+03, 5.666495e+02
1.514057e+03, 5.516567e+02
1.515571e+03, 5.301078e+02
1.517086e+03, 5.255901e+02
1.518603e+03, 5.218399e+02
1.520122e+03, 5.355296e+02
1.521642e+03, 5.069488e+02
1.523164e+03, 5.214448e+02
1.524687e+03, 5.157304e+02
1.526212e+03, 5.264509e+02
1.527738e+03, 5.384976e+02
1.529266e+03, 5.084468e+02
1.530795e+03, 5.404628e+02
1.532326e+03, 5.008305e+02
1.533858e+03, 4.906451e+02
1.535392e+03, 5.015130e+02
1.536927e+03, 5.278640e+02
1.538464e+03, 5.252413e+02
1.540003e+03, 5.412530e+02
1.541543e+03, 5.550362e+02
1.543084e+03, 6.078172e+02
1.544627e+03, 5.633644e+02
1.546172e+03, 5.993168e+02
1.547718e+03, 6.073172e+02
1.549266e+03, 5.668669e+02
1.550815e+03, 5.789026e+02
1.552366e+03, 5.661264e+02
1.553918e+03, 6.596506e+02
1.555472e+03, 6.831021e+02
1.557028e+03, 7.732233e+02
1.558585e+03, 8.523580e+02
1.560143e+03, 8.918108e+02
1.561703e+03, 9.492703e+02
1.563265e+03, 9.594408e+02
1.564828e+03, 1.074689e+03
1.566393e+03, 1.179582e+03
1.567960e+03, 1.176640e+03
1.569528e+03, 1.257182e+03
1.571097e+03, 1.339726e+03
1.572668e+03, 1.361460e+03
1.574241e+03, 1.375028e+03
1.575815e+03, 1.416614e+03
1.577391e+03, 1.561886e+03
1.578968e+03, 1.636730e+03
1.580547e+03, 1.394053e+03
1.582128e+03, 1.280428e+03
1.583710e+03, 1.539271e+03
1.585294e+03, 1.538208e+03
1.586879e+03, 1.551332e+03
1.588466e+03, 1.700456e+03
1.590054e+03, 1.677145e+03
1.591644e+03, 1.737151e+03
1.593236e+03, 1.464595e+03
1.594829e+03, 1.624323e+03
1.596424e+03, 1.679105e+03
1.598020e+03, 1.720678e+03
1.599618e+03, 1.771845e+03
1.601218e+03, 1.721073e+03
1.602819e+03, 1.758914e+03
1.604422e+03, 1.731489e+03
1.606027e+03, 1.729282e+03
1.607633e+03, 1.948080e+03
1.609240e+03, 1.715155e+03
1.610849e+03, 1.918291e+03
1.612460e+03, 1.794079e+03
1.614073e+03, 2.063968e+03
1.615687e+03, 2.125998e+03
1.617303e+03, 1.988370e+03
1.618920e+03, 2.365955e+03
1.620539e+03, 2.041471e+03
1.622159e+03, 2.144369e+03
1.623781e+03, 2.530927e+03
1.625405e+03, 2.451658e+03
1.627031e+03, 2.727888e+03
1.628658e+03, 3.045988e+03
1.630286e+03, 3.428182e+03
1.631917e+03, 3.474034e+03
1.633549e+03, 3.420219e+03
1.635182e+03, 3.063057e+03
1.636817e+03, 4.148488e+03
1.638454e+03, 3.421336e+03
1.640093e+03, 3.040006e+03
1.641733e+03, 3.787947e+03
1.643374e+03, 4.332434e+03
1.645018e+03, 4.616368e+03
1.646663e+03, 4.600266e+03
1.648309e+03, 5.297186e+03
1.649958e+03, 4.983265e+03
1.651608e+03, 4.408705e+03
1.653259e+03, 5.585339e+03
1.654913e+03, 5.295577e+03
1.656567e+03, 4.953875e+03
1.658224e+03, 5.650819e+03
1.659882e+03, 5.330843e+03
1.661542e+03, 6.409377e+03
1.663204e+03, 6.482549e+03
1.664867e+03, 7.674631e+03
1.666532e+03, 6.462847e+03
1.668198e+03, 5.993865e+03
1.669866e+03, 5.371541e+03
1.671536e+03, 6.534883e+03
1.673208e+03, 7.110529e+03
1.674881e+03, 7.802169e+03
1.676556e+03, 8.333574e+03
1.678233e+03, 8.559120e+03
1.679911e+03, 8.952619e+03
1.681591e+03, 7.761622e+03
1.683272e+03, 8.703200e+03
1.684956e+03, 1.018249e+04
1.686640e+03, 9.540523e+03
1.688327e+03, 1.008436e+04
1.690015e+03, 1.013596e+04
1.691705e+03, 1.226259e+04
1.693397e+03, 1.036569e+04
1.695091e+03, 1.285710e+04
1.696786e+03, 1.606551e+04
1.698482e+03, 1.146323e+04
1.700181e+03, 1.131856e+04
1.701881e+03, 1.173856e+04
1.703583e+03, 1.133692e+04
1.705287e+03, 1.389009e+04
1.706992e+03, 1.629330e+04
1.708699e+03, 1.502728e+04
1.710408e+03, 1.701660e+04
1.712118e+03, 1.796289e+04
1.713830e+03, 1.925319e+04
1.715544e+03, 1.725120e+04
1.717259e+03, 1.328622e+04
1.718977e+03, 1.651412e+04
1.720696e+03, 1.692585e+04
1.722416e+03, 1.776995e+04
1.724139e+03, 1.997564e+04
1.725863e+03, 2.192503e+04
1.727589e+03, 2.667681e+04
1.729316e+03, 2.654926e+04
1.731046e+03, 2.653553e+04
1.732777e+03, 2.908022e+04
1.734510e+03, 1.937848e+04
1.736244e+03, 2.291824e+04
1.737980e+03, 2.305311e+04
1.739718e+03, 2.264810e+04
1.741458e+03, 2.426613e+04
1.743199e+03, 2.741586e+04
1.744943e+03, 3.170507e+04
1.746688e+03, 3.335692e+04
1.748434e+03, 3.025992e+04
1.750183e+03, 2.673664e+04
1.751933e+03, 2.648880e+04
1.753685e+03, 2.600511e+04
1.755439e+03, 3.427345e+04
1.757194e+03, 3.382643e+04
1.758951e+03, 3.378775e+04
1.760710e+03, 3.665925e+04
1.762471e+03, 3.469204e+04
1.764233e+03, 3.968008e+04
1.765998e+03, 4.005849e+04
1.767764e+03, 5.494666e+04
1.769531e+03, 4.892649e+04
1.771301e+03, 4.000458e+04
1.773072e+03, 3.521021e+04
1.774845e+03, 4.233326e+04
1.776620e+03, 4.473622e+04
1.778397e+03, 4.958321e+04
1.780175e+03, 5.184364e+04
1.781955e+03, 6.154903e+04
1.783737e+03, 6.603862e+04
1.785521e+03, 6.504559e+04
1.787306e+03, 7.299139e+04
1.789094e+03, 6.545717e+04
1.790883e+03, 6.046020e+04
1.792674e+03, 5.174929e+04
1.794466e+03, 6.420585e+04
1.796261e+03, 7.385154e+04
1.798057e+03, 6.914968e+04
1.799855e+03, 7.376218e+04
1.801655e+03, 8.284360e+04
1.803457e+03, 9.067511e+04
1.805260e+03, 8.646646e+04
1.807065e+03, 8.578482e+04
1.808872e+03, 1.055190e+05
1.810681e+03, 9.033479e+04
1.812492e+03, 6.621073e+04
1.814304e+03, 7.755117e+04
1.816119e+03, 8.610842e+04
1.817935e+03, 9.804799e+04
1.819753e+03, 8.522231e+04
1.821573e+03, 9.687690e+04
1.823394e+03, 1.192130e+05
1.825218e+03, 1.184335e+05
1.827043e+03, 1.142846e+05
1.828870e+03, 1.258390e+05
1.830699e+03, 1.306524e+05
1.832529e+03, 9.880405e+04
1.834362e+03, 9.716582e+04
1.836196e+03, 1.068941e+05
1.838032e+03, 1.230974e+05
1.839871e+03, 1.210586e+05
1.841710e+03, 1.299887e+05
1.843552e+03, 1.490323e+05
1.845396e+03, 1.584750e+05
1.847241e+03, 1.667176e+05
1.849088e+03, 1.682182e+05
1.850937e+03, 1.530781e+05
1.852788e+03, 1.454410e+05
1.854641e+03, 1.232286e+05
1.856496e+03, 1.257797e+05
1.858352e+03, 1.470290e+05
1.860211e+03, 1.674555e+05
1.862071e+03, 1.699598e+05
1.863933e+03, 1.593485e+05
1.865797e+03, 1.730159e+05
1.867663e+03, 2.022718e+05
1.869530e+03, 1.988002e+05
1.871400e+03, 2.019755e+05
1.873271e+03, 1.903360e+05
1.875144e+03, 1.902375e+05
1.877020e+03, 1.959511e+05
1.878897e+03, 1.907730e+05
1.880776e+03, 2.099893e+05
1.882656e+03, 2.258361e+05
1.884539e+03, 2.571330e+05
1.886424e+03, 2.537785e+05
1.888310e+03, 2.740915e+05
1.890198e+03, 2.841340e+05
1.892088e+03, 3.312800e+05
1.893981e+03, 3.264718e+05
1.895875e+03, 3.086876e+05
1.897770e+03, 3.038958e+05
1.899668e+03, 2.752143e+05
1.901568e+03, 3.155327e+05
1.903469e+03, 3.647042e+05
1.905373e+03, 3.618077e+05
1.907278e+03, 3.871099e+05
1.909186e+03, 4.068840e+05
1.911095e+03, 4.360857e+05
1.913006e+03, 4.444039e+05
1.914919e+03, 4.543700e+05
1.916834e+03, 4.900226e+05
1.918751e+03, 4.395411e+05
1.920669e+03, 4.471161e+05
1.922590e+03, 4.377981e+05
1.924513e+03, 4.611024e+05
1.926437e+03, 5.030672e+05
1.928364e+03, 4.925996e+05
1.930292e+03, 5.402029e+05
1.932222e+03, 5.813675e+05
1.934154e+03, 5.671965e+05
1.936089e+03, 5.429971e+05
1.938025e+03, 6.142209e+05
1.939963e+03, 5.982352e+05
1.941903e+03, 6.945418e+05
1.943845e+03, 5.932486e+05
1.945788e+03, 5.810765e+05
1.947734e+03, 6.583930e+05
1.949682e+03, 6.393737e+05
1.951632e+03, 6.553620e+05
1.953583e+03, 7.983751e+05
1.955537e+03, 7.401259e+05
1.957492e+03, 8.109867e+05
1.959450e+03, 7.673427e+05
1.961409e+03, 7.923492e+05
1.963371e+03, 8.519149e+05
1.965334e+03, 8.790682e+05
1.967299e+03, 8.828080e+05
1.969267e+03, 8.434831e+05
1.971236e+03, 9.678359e+05
1.973207e+03, 9.119284e+05
1.975180e+03, 1.010445e+06
1.977156e+03, 1.020459e+06
1.979133e+03, 1.076187e+06
1.981112e+03, 1.118442e+06
1.983093e+03, 1.196313e+06
1.985076e+03, 1.247106e+06
1.987061e+03, 1.220482e+06
1.989048e+03, 1.224079e+06
1.991037e+03, 1.121053e+06
1.993028e+03, 1.197552e+06
1.995021e+03, 1.157999e+06
1.997016e+03, 1.218262e+06
1.999013e+03, 1.284258e+06
2.001012e+03, 1.309533e+06
2.003013e+03, 1.420529e+06
2.005016e+03, 1.418350e+06
2.007021e+03, 1.392890e+06
2.009028e+03, 1.535952e+06
2.011037e+03, 1.596966e+06
2.013048e+03, 1.684434e+06
2.015062e+03, 1.671994e+06
2.017077e+03, 1.603857e+06
2.019094e+03, 1.666141e+06
2.021113e+03, 1.677859e+06
2.023134e+03, 1.693634e+06
2.025157e+03, 1.797726e+06
2.027182e+03, 1.702618e+06
2.029209e+03, 1.991661e+06
2.031239e+03, 2.002042e+06
2.033270e+03, 2.084614e+06
2.035303e+03, 1.991718e+06
2.037338e+03, 2.142150e+06
2.039376e+03, 2.210388e+06
2.041415e+03, 2.179819e+06
2.043457e+03, 2.222142e+06
2.045500e+03, 2.212213e+06
2.047545e+03, 2.229560e+06
2.049593e+03, 2.403922e+06
2.051643e+03, 2.436889e+06
2.053694e+03, 2.497365e+06
2.055748e+03, 2.480136e+06
2.057804e+03, 2.792330e+06
2.059861e+03, 2.552764e+06
2.061921e+03, 2.686256e+06
2.063983e+03, 2.702276e+06
2.066047e+03, 2.618277e+06
2.068113e+03, 2.971417e+06
2.070181e+03, 2.821466e+06
2.072252e+03, 6.317973e+06
2.074324e+03, 4.928168e+06
2.076398e+03, 4.754310e+06
2.078475e+03, 3.834379e+06
2.080553e+03, 6.635912e+06
2.082634e+03, 6.546293e+06
2.084716e+03, 6.338055e+06
2.086801e+03, 6.915874e+06
2.088888e+03, 9.125634e+06
2.090977e+03, 1.074987e+07
2.093068e+03, 9.250167e+06
2.095161e+03, 6.088528e+06
2.097256e+03, 9.956115e+06
2.099353e+03, 9.802663e+06
2.101452e+03, 9.178072e+06
2.103554e+03, 8.918825e+06
2.105657e+03, 8.446590e+06
2.107763e+03, 8.816861e+06
2.109871e+03, 8.528476e+06
2.111981e+03, 1.321174e+07
2.114093e+03, 1.064029e+07
2.116207e+03, 7.854430e+06
2.118323e+03, 8.848146e+06
2.120441e+03, 1.201182e+07
2.122562e+03, 1.657713e+07
2.124684e+03, 1.253230e+07
2.126809e+03, 9.992489e+06
2.128936e+03, 1.063519e+07
2.131065e+03, 1.421431e+07
2.133196e+03, 1.358115e+07
2.135329e+03, 1.300886e+07
2.137464e+03, 1.345710e+07
2.139602e+03, 1.449169e+07
2.141741e+03, 8.220367e+06
2.143883e+03, 1.453459e+07
2.146027e+03, 1.524077e+07
2.148173e+03, 8.867919e+06
2.150321e+03, 1.041856e+07
2.152472e+03, 1.593136e+07
2.154624e+03, 1.624410e+07
2.156779e+03, 2.022577e+07
2.158935e+03, 1.510112e+07
2.161094e+03, 1.522724e+07
2.163255e+03, 1.230294e+07
2.165419e+03, 1.389024e+07
2.167584e+03, 1.382122e+07
2.169752e+03, 1.262938e+07
2.171921e+03, 1.909251e+07
2.174093e+03, 1.685821e+07
2.176268e+03, 2.909932e+07
2.178444e+03, 9.722794e+06
2.180622e+03, 1.435615e+07
2.182803e+03, 1.409541e+07
2.184986e+03, 1.840953e+07
2.187171e+03, 1.927989e+07
2.189358e+03, 2.658059e+07
2.191547e+03, 2.479389e+07
2.193739e+03, 2.311412e+07
2.195932e+03, 2.837614e+07
2.198128e+03, 2.804420e+07
2.200327e+03, 1.453526e+07
2.202527e+03, 2.704454e+07
2.204729e+03, 2.040331e+07
2.206934e+03, 4.338499e+07
2.209141e+03, 2.963611e+07
2.211350e+03, 2.739628e+07
2.213562e+03, 4.015685e+07
2.215775e+03, 3.113315e+07
2.217991e+03, 2.200692e+07
2.220209e+03, 1.879897e+07
2.222429e+03, 2.135552e+07
2.224651e+03, 3.337731e+07
2.226876e+03, 2.433891e+07
2.229103e+03, 4.859509e+07
2.231332e+03, 3.552014e+07
2.233563e+03, 6.097853e+07
2.235797e+03, 8.705302e+07
2.238033e+03, 2.707963e+07
2.240271e+03, 4.368769e+07
2.242511e+03, 3.891011e+07
2.244754e+03, 5.159115e+07
2.246998e+03, 6.028131e+07
2.249245e+03, 6.031006e+07
2.251495e+03, 7.171253e+07
2.253746e+03, 8.562706e+07
2.256000e+03, 7.031312e+07
2.258256e+03, 2.568722e+07
2.260514e+03, 2.036678e+07
2.262775e+03, 3.073910e+07
2.265037e+03, 3.888585e+07
2.267302e+03, 4.336970e+07
2.269570e+03, 4.061167e+07
2.271839e+03, 6.777326e+07
2.274111e+03, 9.248583e+07
2.276385e+03, 6.240245e+07
2.278662e+03, 7.959764e+07
2.280940e+03, 6.204093e+07
2.283221e+03, 6.545340e+07
2.285504e+03, 6.573958e+07
2.287790e+03, 6.337581e+07
2.290078e+03, 7.437158e+07
2.292368e+03, 1.105836e+08
2.294660e+03, 8.928022e+07
2.296955e+03, 1.213671e+08
2.299252e+03, 7.589499e+07
2.301551e+03, 3.057568e+07
2.303853e+03, 3.910428e+07
2.306156e+03, 5.491938e+07
2.308463e+03, 7.853409e+07
2.310771e+03, 7.268488e+07
2.313082e+03, 8.997587e+07
2.315395e+03, 1.538144e+08
2.317710e+03, 2.195196e+08
2.320028e+03, 1.292822e+08
2.322348e+03, 8.121014e+07
2.324670e+03, 1.088690e+08
2.326995e+03, 1.049649e+08
2.329322e+03, 1.098701e+08
2.331651e+03, 2.133271e+08
2.333983e+03, 1.927182e+08
2.336317e+03, 1.710567e+08
2.338653e+03, 1.850737e+08
2.340992e+03, 2.675781e+08
2.343333e+03, 1.345269e+08
2.345676e+03, 5.861232e+07
2.348022e+03, 6.222395e+07
2.350370e+03, 9.092026e+07
2.352720e+03, 8.564601e+07
2.355073e+03, 8.824293e+07
2.357428e+03, 1.185172e+08
2.359786e+03, 1.676428e+08
2.362145e+03, 1.661087e+08
2.364508e+03, 2.169448e+08
2.366872e+03, 6.358553e+07
2.369239e+03, 1.058223e+08
2.371608e+03, 1.281206e+08
2.373980e+03, 9.683631e+07
2.376354e+03, 1.747683e+08
2.378730e+03, 1.966330e+08
2.381109e+03, 3.473559e+08
2.383490e+03, 3.142445e+08
2.385873e+03, 2.484809e+08
2.388259e+03, 2.222658e+08
2.390648e+03, 1.788898e+08
2.393038e+03, 1.940894e+08
2.395431e+03, 2.389571e+08
2.397827e+03, 3.077506e+08
2.400225e+03, 3.282448e+08
2.402625e+03, 4.689735e+08
2.405027e+03, 6.620672e+08
2.407432e+03, 5.199764e+08
2.409840e+03, 6.404963e+08
2.412250e+03, 3.578465e+08
2.414662e+03, 1.459246e+08
2.417077e+03, 2.000590e+08
2.419494e+03, 2.097398e+08
2.421913e+03, 2.272007e+08
2.424335e+03, 2.785270e+08
2.426759e+03, 4.338933e+08
2.429186e+03, 8.990311e+08
2.431615e+03, 7.586224e+08
2.434047e+03, 4.505964e+08
2.436481e+03, 4.259667e+08
2.438918e+03, 6.513216e+08
2.441356e+03, 6.218012e+08
2.443798e+03, 6.912783e+08
2.446242e+03, 8.571364e+08
2.448688e+03, 1.084807e+09
2.451137e+03, 9.879677e+08
2.453588e+03, 1.210979e+09
2.456041e+03, 1.492592e+09
2.458497e+03, 5.728542e+08
2.460956e+03, 3.544606e+08
2.463417e+03, 2.965832e+08
2.465880e+03, 6.382452e+08
2.468346e+03, 9.513072e+08
2.470814e+03, 8.450939e+08
2.473285e+03, 5.561026e+08
2.475758e+03, 1.157944e+09
2.478234e+03, 1.197180e+09
2.480712e+03, 5.603413e+08
2.483193e+03, 2.919006e+08
2.485676e+03, 3.438701e+08
2.488162e+03, 1.901827e+08
2.490650e+03, 1.965336e+08
2.493141e+03, 3.822276e+08
2.495634e+03, 5.935288e+08
2.498130e+03, 7.329070e+08
2.500628e+03, 6.493920e+08
2.503128e+03, 9.904272e+08
2.505632e+03, 1.043698e+09
2.508137e+03, 8.609728e+08
2.510645e+03, 4.027224e+08
2.513156e+03, 6.189316e+08
2.515669e+03, 7.917001e+08
2.518185e+03, 6.472797e+08
2.520703e+03, 9.333262e+08
2.523224e+03, 4.868469e+08
2.525747e+03, 1.090998e+09
2.528273e+03, 7.050424e+08
2.530801e+03, 9.606288e+08
2.533332e+03, 1.934240e+09
2.535865e+03, 1.922324e+09
2.538401e+03, 3.029460e+09
2.540939e+03, 2.056956e+09
2.543480e+03, 2.597655e+09
2.546024e+03, 1.550361e+09
2.548570e+03, 3.474287e+09
2.551118e+03, 2.673518e+09
2.553669e+03, 4.606245e+09
2.556223e+03, 2.936914e+09
2.558779e+03, 2.090933e+09
2.561338e+03, 2.561239e+09
2.563899e+03, 1.369268e+09
2.566463e+03, 1.063485e+09
2.569030e+03, 1.687848e+09
2.571599e+03, 2.551286e+09
2.574170e+03, 2.665628e+09
2.576745e+03, 2.037222e+09
2.579321e+03, 2.702484e+09
2.581901e+03, 2.146892e+09
2.584483e+03, 2.136290e+09
2.587067e+03, 1.791012e+09
2.589654e+03, 1.213072e+09
2.592244e+03, 1.825033e+09
2.594836e+03, 2.209532e+09
2.597431e+03, 4.373840e+09
2.600028e+03, 3.079907e+09
2.602628e+03, 4.131545e+09
2.605231e+03, 5.212525e+09
2.607836e+03, 3.145581e+09
2.610444e+03, 3.654945e+09
2.613054e+03, 2.811462e+09
2.615667e+03, 3.848045e+09
2.618283e+03, 3.991660e+09
2.620901e+03, 5.186013e+09
2.623522e+03, 5.093489e+09
2.626146e+03, 7.950031e+09
2.628772e+03, 7.194071e+09
2.631401e+03, 9.083880e+09
2.634032e+03, 8.909583e+09
2.636666e+03, 1.054984e+10
2.639303e+03, 1.588117e+10
2.641942e+03, 9.989846e+09
2.644584e+03, 6.639545e+09
2.647229e+03, 4.650837e+09
2.649876e+03, 7.930174e+09
2.652526e+03, 7.064437e+09
2.655178e+03, 1.352232e+10
2.657834e+03, 1.136953e+10
2.660491e+03, 8.014189e+09
2.663152e+03, 1.059931e+10
2.665815e+03, 7.701809e+09
2.668481e+03, 7.257945e+09
2.671149e+03, 4.999403e+09
2.673820e+03, 8.484318e+09
2.676494e+03, 1.070586e+10
2.679171e+03, 9.987548e+09
2.681850e+03, 9.312343e+09
2.684532e+03, 1.300280e+10
2.687216e+03, 1.253495e+10
2.689904e+03, 8.129475e+09
2.692593e+03, 6.973727e+09
2.695286e+03, 6.147811e+09
2.697981e+03, 7.130458e+09
2.700679e+03, 1.108308e+10
2.703380e+03, 1.125774e+10
2.706083e+03, 1.674361e+10
2.708789e+03, 1.485079e+10
2.711498e+03, 1.475655e+10
2.714210e+03, 1.161300e+10
2.716924e+03, 9.653245e+09
2.719641e+03, 3.071484e+09
2.722360e+03, 4.194294e+09
2.725083e+03, 6.730665e+09
2.727808e+03, 1.125729e+10
2.730536e+03, 1.098602e+10
2.733266e+03, 9.235386e+09
2.736000e+03, 8.167818e+09
2.738736e+03, 8.547779e+09
2.741474e+03, 1.287753e+10
2.744216e+03, 5.542635e+09
2.746960e+03, 1.573979e+10
2.749707e+03, 1.134321e+10
2.752457e+03, 1.428422e+10
2.755209e+03, 1.322123e+10
2.757964e+03, 1.131641e+10
2.760722e+03, 1.859887e+10
2.763483e+03, 1.774468e+10
2.766246e+03, 3.003479e+10
2.769013e+03, 2.069404e+10
2.771782e+03, 2.275544e+10
2.774554e+03, 2.725831e+10
2.777328e+03, 2.993982e+10
2.780105e+03, 1.441164e+10
2.782886e+03, 1.601641e+10
2.785668e+03, 2.506133e+10
2.788454e+03, 1.758944e+10
2.791243e+03, 3.101741e+10
2.794034e+03, 2.826104e+10
2.796828e+03, 2.009395e+10
2.799625e+03, 1.672234e+10
2.802424e+03, 1.948671e+10
2.805227e+03, 3.167026e+10
2.808032e+03, 1.972669e+10
2.810840e+03, 3.099268e+10
2.813651e+03, 2.814569e+10
2.816464e+03, 3.876747e+10
2.819281e+03, 3.467725e+10
2.822100e+03, 2.442467e+10
2.824922e+03, 2.825034e+10
2.827747e+03, 2.294912e+10
2.830575e+03, 2.929456e+10
2.833406e+03, 2.162338e+10
2.836239e+03, 1.924978e+10
2.839075e+03, 1.974135e+10
2.841914e+03, 1.744983e+10
2.844756e+03, 1.271171e+10
2.847601e+03, 8.570679e+09
2.850448e+03, 4.627388e+09
2.853299e+03, 1.822009e+09
2.856152e+03, 6.399468e+09
2.859008e+03, 1.140916e+10
2.861867e+03, 1.717379e+10
2.864729e+03, 2.075043e+10
2.867594e+03, 2.594441e+10
2.870462e+03, 2.934965e+10
2.873332e+03, 2.786529e+10
2.876205e+03, 2.920422e+10
2.879082e+03, 3.802673e+10
2.881961e+03, 4.368956e+10
2.884843e+03, 6.072561e+10
2.887727e+03, 6.760210e+10
2.890615e+03, 7.419415e+10
2.893506e+03, 7.454587e+10
2.896399e+03, 7.014145e+10
2.899296e+03, 7.096753e+10
2.902195e+03, 6.504358e+10
2.905097e+03, 8.527777e+10
2.908002e+03, 9.591536e+10
2.910910e+03, 8.010734e+10
2.913821e+03, 7.019316e+10
2.916735e+03, 1.158585e+11
2.919652e+03, 1.086947e+11
2.922571e+03, 1.159479e+11
2.925494e+03, 1.086438e+11
2.928420e+03, 5.217713e+10
2.931348e+03, 7.463792e+10
2.934279e+03, 9.810688e+10
2.937214e+03, 3.706718e+10
2.940151e+03, 8.702180e+10
2.943091e+03, 4.971542e+10
2.946034e+03, 7.132235e+10
2.948980e+03, 3.887400e+10
2.951929e+03, 1.036363e+11
2.954881e+03, 4.485228e+10
2.957836e+03, 4.241971e+10
2.960794e+03, 1.137121e+11
2.963754e+03, 9.777832e+10
2.966718e+03, 2.516128e+10
2.969685e+03, 3.188869e+10
2.972655e+03, 3.428359e+10
2.975627e+03, 5.193333e+10
2.978603e+03, 1.059687e+11
2.981581e+03, 6.944501e+10
2.984563e+03, 3.115398e+10
2.987548e+03, 6.871227e+10
2.990535e+03, 1.197346e+11
2.993526e+03, 6.054973e+10
2.996519e+03, 4.048530e+10
2.999516e+03, 5.991032e+10
3.002515e+03, 2.453172e+10
3.005518e+03, 6.709063e+10
3.008523e+03, 3.059966e+10
3.011532e+03, 8.712235e+10
3.014543e+03, 9.070401e+10
3.017558e+03, 6.584693e+10
3.020575e+03, 1.841930e+10
3.023596e+03, 3.643390e+10
3.026620e+03, 4.111658e+10
3.029646e+03, 1.249289e+11
3.032676e+03, 1.472991e+11
3.035709e+03, 1.415330e+11
3.038744e+03, 5.799710e+10
3.041783e+03, 1.065648e+11
3.044825e+03, 1.229317e+11
3.047870e+03, 6.162359e+10
3.050918e+03, 8.543843e+10
3.053968e+03, 1.289655e+11
3.057022e+03, 1.041270e+11
3.060079e+03, 5.234822e+10
3.063140e+03, 1.844153e+11
3.066203e+03, 2.285446e+11
3.069269e+03, 2.356380e+11
3.072338e+03, 2.990549e+11
3.075410e+03, 2.144730e+11
3.078486e+03, 2.575400e+11
3.081564e+03, 1.157176e+11
3.084646e+03, 1.099285e+11
3.087731e+03, 2.429667e+11
3.090818e+03, 1.657776e+11
3.093909e+03, 5.316346e+10
3.097003e+03, 1.768080e+11
3.100100e+03, 1.687010e+11
3.103200e+03, 1.593784e+11
3.106303e+03, 3.575685e+11
3.109410e+03, 4.550872e+11
3.112519e+03, 4.485275e+11
3.115632e+03, 4.241199e+11
3.118747e+03, 4.145131e+11
3.121866e+03, 4.607119e+11
3.124988e+03, 5.524600e+11
3.128113e+03, 6.055950e+11
3.131241e+03, 4.097602e+11
3.134372e+03, 2.733837e+11
3.137507e+03, 5.173041e+11
3.140644e+03, 5.612766e+11
3.143785e+03, 5.928600e+11
3.146928e+03, 5.602154e+11
3.150075e+03, 6.698822e+11
3.153225e+03, 5.813930e+11
3.156379e+03, 7.412423e+11
3.159535e+03, 4.890322e+11
3.162695e+03, 5.210577e+11
3.165857e+03, 6.380254e+11
3.169023e+03, 7.372057e+11
3.172192e+03, 7.123435e+11
3.175364e+03, 9.347356e+11
3.178540e+03, 8.734637e+11
3.181718e+03, 5.403918e+11
3.184900e+03, 2.802591e+11
3.188085e+03, 5.322482e+11
3.191273e+03, 4.702220e+11
3.194464e+03, 3.769692e+11
3.197659e+03, 5.142249e+11
3.200856e+03, 4.060041e+11
3.204057e+03, 7.905301e+11
3.207261e+03, 8.685900e+11
3.210469e+03, 7.591940e+11
3.213679e+03, 5.657912e+11
3.216893e+03, 5.343948e+11
3.220110e+03, 7.743743e+11
3.223330e+03, 6.027059e+11
3.226553e+03, 4.612074e+11
3.229780e+03, 6.007645e+11
3.233009e+03, 6.185897e+11
3.236242e+03, 4.394685e+11
3.239479e+03, 9.205067e+11
3.242718e+03, 7.647171e+11
3.245961e+03, 6.695325e+11
3.249207e+03, 5.420969e+11
3.252456e+03, 9.571016e+11
3.255708e+03, 1.100985e+12
3.258964e+03, 1.233652e+12
3.262223e+03, 1.321552e+12
3.265485e+03, 9.208884e+11
3.268751e+03, 1.447063e+12
3.272020e+03, 8.765831e+11
3.275292e+03, 8.276694e+11
3.278567e+03, 1.399937e+12
3.281845e+03, 1.385306e+12
3.285127e+03, 1.131495e+12
3.288412e+03, 1.095564e+12
3.291701e+03, 1.465825e+12
3.294993e+03, 1.657176e+12
3.298288e+03, 1.553792e+12
3.301586e+03, 1.109997e+12
3.304887e+03, 7.578446e+11
3.308192e+03, 1.010227e+12
3.311500e+03, 1.306165e+12
3.314812e+03, 1.133552e+12
3.318127e+03, 1.139744e+12
3.321445e+03, 1.233327e+12
3.324766e+03, 1.184247e+12
3.328091e+03, 1.754986e+12
3.331419e+03, 1.469359e+12
3.334751e+03, 1.141402e+12
3.338085e+03, 1.244832e+12
3.341423e+03, 1.130941e+12
3.344765e+03, 1.132008e+12
3.348110e+03, 1.593388e+12
3.351458e+03, 6.556838e+11
3.354809e+03, 1.027929e+12
3.358164e+03, 1.219336e+12
3.361522e+03, 3.959223e+11
3.364884e+03, 1.297190e+12
3.368249e+03, 8.748059e+11
3.371617e+03, 3.597898e+11
3.374988e+03, 8.962173e+11
3.378363e+03, 1.055849e+12
3.381742e+03, 6.892233e+11
3.385124e+03, 1.227845e+12
3.388509e+03, 1.195251e+12
3.391897e+03, 7.932046e+11
3.395289e+03, 8.886494e+11
3.398684e+03, 1.409762e+12
3.402083e+03, 1.510728e+12
3.405485e+03, 1.162413e+12
3.408891e+03, 1.121587e+12
3.412300e+03, 9.255590e+11
3.415712e+03, 3.182717e+11
3.419128e+03, 1.107746e+12
3.422547e+03, 1.429242e+12
3.425969e+03, 9.506539e+11
3.429395e+03, 1.350940e+12
3.432825e+03, 9.064901e+11
3.436257e+03, 7.565185e+11
3.439694e+03, 3.598676e+11
3.443133e+03, 1.806344e+11
3.446576e+03, 3.570655e+11
3.450023e+03, 1.005104e+12
3.453473e+03, 6.713003e+11
3.456927e+03, 1.210579e+12
3.460383e+03, 7.654132e+11
3.463844e+03, 7.638841e+11
3.467308e+03, 4.948116e+11
3.470775e+03, 1.224672e+12
3.474246e+03, 8.025061e+11
3.477720e+03, 3.997396e+11
3.481198e+03, 1.562483e+12
3.484679e+03, 1.361301e+12
3.488164e+03, 1.303140e+12
3.491652e+03, 3.877275e+11
3.495143e+03, 7.618415e+11
3.498639e+03, 6.957022e+11
3.502137e+03, 1.207337e+12
3.505639e+03, 2.174365e+12
3.509145e+03, 1.880970e+12
3.512654e+03, 1.034098e+12
3.516167e+03, 6.441395e+11
3.519683e+03, 1.462467e+12
3.523203e+03, 7.579537e+11
3.526726e+03, 3.657251e+11
3.530253e+03, 1.378896e+12
3.533783e+03, 1.955717e+12
3.537317e+03, 2.391384e+12
3.540854e+03, 2.677038e+12
3.544395e+03, 2.864975e+12
3.547939e+03, 2.079466e+12
3.551487e+03, 2.355312e+12
3.555039e+03, 1.800929e+12
3.558594e+03, 1.463322e+12
3.562152e+03, 1.808411e+12
3.565714e+03, 8.516109e+11
3.569280e+03, 7.864323e+11
3.572849e+03, 8.090762e+11
3.576422e+03, 9.213508e+11
3.579999e+03, 3.104440e+11
3.583579e+03, 6.123781e+11
3.587162e+03, 5.609915e+11
3.590749e+03, 1.200793e+12
3.594340e+03, 4.567958e+11
3.597934e+03, 1.176300e+12
3.601532e+03, 1.794256e+12
3.605134e+03, 6.826137e+11
3.608739e+03, 6.322828e+11
3.612348e+03, 1.203494e+12
3.615960e+03, 1.958969e+12
3.619576e+03, 7.525180e+11
3.623196e+03, 1.633627e+12
3.626819e+03, 2.136745e+12
3.630446e+03, 1.479033e+12
3.634076e+03, 1.244704e+12
3.637710e+03, 1.630434e+12
3.641348e+03, 2.476720e+12
3.644989e+03, 1.064153e+12
3.648634e+03, 6.829055e+11
3.652283e+03, 1.649497e+12
3.655935e+03, 2.004981e+12
3.659591e+03, 3.188638e+12
3.663251e+03, 3.234506e+12
3.666914e+03, 3.662284e+12
3.670581e+03, 2.651210e+12
3.674251e+03, 2.757438e+12
3.677926e+03, 2.261234e+12
3.681604e+03, 1.058835e+12
3.685285e+03, 2.018947e+12
3.688971e+03, 1.564524e+12
3.692660e+03, 3.063640e+12
3.696352e+03, 2.980418e+12
3.700049e+03, 3.320538e+12
3.703749e+03, 1.877083e+12
3.707452e+03, 6.699527e+11
3.711160e+03, 1.401561e+12
3.714871e+03, 1.905063e+12
3.718586e+03, 7.657435e+11
3.722304e+03, 2.797572e+11
3.726027e+03, 1.194776e+12
3.729753e+03, 1.044746e+12
3.733482e+03, 7.186752e+11
3.737216e+03, 2.845502e+11
3.740953e+03, 8.864479e+11
3.744694e+03, 7.226230e+11
3.748439e+03, 3.471304e+11
3.752187e+03, 9.536134e+11
3.755939e+03, 1.876005e+12
3.759695e+03, 1.157311e+12
3.763455e+03, 1.632096e+12
3.767219e+03, 1.379501e+12
3.770986e+03, 2.951266e+12
3.774757e+03, 3.697142e+12
3.778532e+03, 3.615142e+12
3.782310e+03, 4.284303e+12
3.786092e+03, 2.816510e+12
3.789878e+03, 1.865013e+12
3.793668e+03, 3.084573e+12
3.797462e+03, 2.158346e+12
3.801259e+03, 2.036299e+12
3.805061e+03, 4.048464e+12
3.808866e+03, 3.101482e+12
3.812675e+03, 2.902843e+12
3.816487e+03, 1.656091e+12
3.820304e+03, 1.157098e+12
3.824124e+03, 8.866817e+11
3.827948e+03, 8.797639e+11
3.831776e+03, 1.769916e+12
3.835608e+03, 1.538849e+12
3.839444e+03, 1.754940e+12
3.843283e+03, 2.103891e+12
3.847126e+03, 3.127910e+12
3.850973e+03, 2.119437e+12
3.854824e+03, 1.988033e+12
3.858679e+03, 6.027256e+11
3.862538e+03, 9.137247e+11
3.866400e+03, 1.918039e+12
3.870267e+03, 3.192940e+12
3.874137e+03, 2.208528e+12
3.878011e+03, 1.325561e+12
3.881889e+03, 2.161338e+12
3.885771e+03, 1.354290e+12
3.889657e+03, 1.578232e+12
3.893547e+03, 3.073800e+12
3.897440e+03, 1.639338e+12
3.901338e+03, 1.653756e+12
3.905239e+03, 2.502918e+12
3.909144e+03, 2.691778e+12
3.913053e+03, 4.352657e+12
3.916966e+03, 3.610198e+12
3.920883e+03, 1.713580e+12
3.924804e+03, 1.584404e+12
3.928729e+03, 1.505270e+12
3.932658e+03, 1.081371e+12
3.936590e+03, 1.694536e+12
3.940527e+03, 2.832560e+12
3.944467e+03, 9.312220e+11
3.948412e+03, 1.858036e+12
3.952360e+03, 3.365192e+12
3.956313e+03, 2.920246e+12
3.960269e+03, 1.332200e+12
3.964229e+03, 1.014093e+12
3.968194e+03, 1.565547e+12
3.972162e+03, 2.565426e+12
3.976134e+03, 3.896906e+12
3.980110e+03, 5.236925e+12
3.984090e+03, 4.067644e+12
3.988074e+03, 6.035981e+12
3.992062e+03, 4.675286e+12
3.996054e+03, 6.249608e+12
4.000050e+03, 4.366088e+12
4.004050e+03, 6.922458e+12
4.008055e+03, 5.227289e+12
4.012063e+03, 5.374196e+12
4.016075e+03, 7.811809e+12
4.020091e+03, 6.443674e+12
4.024111e+03, 5.454355e+12
4.028135e+03, 5.958836e+12
4.032163e+03, 2.139562e+12
4.036195e+03, 3.086158e+12
4.040231e+03, 6.891317e+12
4.044272e+03, 4.994287e+12
4.048316e+03, 3.300961e+12
4.052364e+03, 7.569994e+12
4.056417e+03, 7.067549e+12
4.060473e+03, 6.444457e+12
4.064533e+03, 3.961570e+12
4.068598e+03, 6.618794e+12
4.072667e+03, 4.775662e+12
4.076739e+03, 6.609404e+12
4.080816e+03, 6.951541e+12
4.084897e+03, 7.336598e+12
4.088982e+03, 9.595711e+12
4.093071e+03, 7.507447e+12
4.097164e+03, 5.738219e+12
4.101261e+03, 4.615120e+12
4.105362e+03, 6.027608e+12
4.109468e+03, 5.810548e+12
4.113577e+03, 5.453160e+12
4.117691e+03, 5.476488e+12
4.121808e+03, 5.690187e+12
4.125930e+03, 7.330793e+12
4.130056e+03, 5.584852e+12
4.134186e+03, 4.264773e+12
4.138320e+03, 7.122325e+12
4.142459e+03, 5.196875e+12
4.146601e+03, 5.097380e+12
4.150748e+03, 6.360494e+12
4.154898e+03, 6.396818e+12
4.159053e+03, 6.957041e+12
4.163212e+03, 7.723688e+12
4.167376e+03, 5.938999e+12
4.171543e+03, 5.652667e+12
4.175714e+03, 5.078056e+12
4.179890e+03, 6.191860e+12
4.184070e+03, 5.801736e+12
4.188254e+03, 5.215459e+12
4.192442e+03, 5.384411e+12
4.196635e+03, 5.318955e+12
4.200831e+03, 4.027082e+12
4.205032e+03, 3.855766e+12
4.209237e+03, 3.666598e+12
4.213447e+03, 3.060096e+12
4.217660e+03, 2.173288e+12
4.221878e+03, 1.499809e+12
4.226100e+03, 6.115990e+11
4.230326e+03, 7.546236e+11
4.234556e+03, 1.610206e+12
4.238791e+03, 2.533856e+12
4.243029e+03, 3.400909e+12
4.247272e+03, 4.151615e+12
4.251520e+03, 3.641272e+12
4.255771e+03, 2.217035e+12
4.260027e+03, 4.300664e+12
4.264287e+03, 5.902074e+12
4.268551e+03, 5.907879e+12
4.272820e+03, 3.683467e+12
4.277093e+03, 2.923332e+12
4.281370e+03, 5.842223e+12
4.285651e+03, 4.547744e+12
4.289937e+03, 3.020451e+12
4.294227e+03, 4.882686e+12
4.298521e+03, 5.332156e+12
4.302819e+03, 3.633114e+12
4.307122e+03, 4.418828e+12
4.311429e+03, 6.531070e+12
4.315741e+03, 7.105035e+12
4.320057e+03, 6.203391e+12
4.324377e+03, 7.196231e+12
4.328701e+03, 6.672132e+12
4.333030e+03, 9.169099e+12
4.337363e+03, 8.675916e+12
4.341700e+03, 7.831167e+12
4.346042e+03, 8.155302e+12
4.350388e+03, 9.510829e+12
4.354738e+03, 6.557834e+12
4.359093e+03, 8.518233e+12
4.363452e+03, 9.833817e+12
4.367815e+03, 1.015318e+13
4.372183e+03, 9.139565e+12
4.376555e+03, 7.212653e+12
4.380932e+03, 7.493343e+12
4.385313e+03, 4.550115e+12
4.389698e+03, 7.952284e+12
4.394088e+03, 9.075465e+12
4.398482e+03, 9.302419e+12
4.402881e+03, 8.296790e+12
4.407283e+03, 5.060718e+12
4.411691e+03, 8.965978e+12
4.416102e+03, 7.899972e+12
4.420518e+03, 1.045447e+13
4.424939e+03, 6.470460e+12
4.429364e+03, 6.393493e+12
4.433793e+03, 7.355992e+12
4.438227e+03, 5.998233e+12
4.442665e+03, 8.022358e+12
4.447108e+03, 9.326848e+12
4.451555e+03, 8.657527e+12
4.456007e+03, 4.376067e+12
4.460463e+03, 6.651324e+12
4.464923e+03, 7.262894e+12
4.469388e+03, 8.858993e+12
4.473857e+03, 9.485035e+12
4.478331e+03, 9.849631e+12
4.482810e+03, 8.473179e+12
4.487292e+03, 1.010397e+13
4.491780e+03, 9.547712e+12
4.496272e+03, 8.582086e+12
4.500768e+03, 1.088772e+13
4.505269e+03, 1.067939e+13
4.509774e+03, 9.250483e+12
4.514284e+03, 8.967014e+12
4.518798e+03, 9.521153e+12
4.523317e+03, 9.922598e+12
4.527840e+03, 7.976825e+12
4.532368e+03, 8.151461e+12
4.536900e+03, 6.957953e+12
4.541437e+03, 1.061254e+13
4.545979e+03, 9.832260e+12
4.550525e+03, 9.061289e+12
4.555075e+03, 8.473048e+12
4.559630e+03, 1.084917e+13
4.564190e+03, 1.148828e+13
4.568754e+03, 1.184627e+13
4.573323e+03, 1.067718e+13
4.577896e+03, 1.065890e+13
4.582474e+03, 9.013497e+12
4.587056e+03, 7.301351e+12
4.591643e+03, 7.836589e+12
4.596235e+03, 7.515939e+12
4.600831e+03, 8.314780e+12
4.605432e+03, 8.697485e+12
4.610038e+03, 8.242358e+12
4.614648e+03, 1.053035e+13
4.619262e+03, 9.678619e+12
4.623882e+03, 1.055460e+13
4.628505e+03, 7.498610e+12
4.633134e+03, 7.712443e+12
4.637767e+03, 7.799633e+12
4.642405e+03, 8.078827e+12
4.647047e+03, 7.881659e+12
4.651694e+03, 7.724834e+12
4.656346e+03, 8.594590e+12
4.661002e+03, 1.110220e+13
4.665663e+03, 1.017484e+13
4.670329e+03, 7.284652e+12
4.674999e+03, 7.695078e+12
4.679674e+03, 8.482160e+12
4.684354e+03, 7.366145e+12
4.689038e+03, 9.077771e+12
4.693727e+03, 9.508318e+12
4.698421e+03, 9.571697e+12
4.703120e+03, 1.024609e+13
4.707823e+03, 1.061247e+13
4.712530e+03, 9.585994e+12
4.717243e+03, 7.716646e+12
4.721960e+03, 8.446343e+12
4.726682e+03, 9.348062e+12
4.731409e+03, 9.360734e+12
4.736140e+03, 9.450218e+12
4.740876e+03, 9.361525e+12
4.745617e+03, 9.639092e+12
4.750363e+03, 1.035624e+13
4.755113e+03, 9.626521e+12
4.759868e+03, 8.148836e+12
4.764628e+03, 5.029081e+12
4.769393e+03, 5.124713e+12
4.774162e+03, 5.676484e+12
4.778936e+03, 6.166264e+12
4.783715e+03, 6.398389e+12
4.788499e+03, 6.294658e+12
4.793288e+03, 7.486875e+12
4.798081e+03, 8.709483e+12
4.802879e+03, 8.626769e+12
4.807682e+03, 5.709455e+12
4.812490e+03, 5.669038e+12
4.817302e+03, 6.591621e+12
4.822119e+03, 7.501346e+12
4.826941e+03, 7.319233e+12
4.831768e+03, 7.658303e+12
4.836600e+03, 8.725328e+12
4.841437e+03, 8.663643e+12
4.846278e+03, 1.002035e+13
4.851124e+03, 7.955398e+12
4.855976e+03, 8.263719e+12
4.860832e+03, 9.395467e+12
4.865692e+03, 9.751848e+12
4.870558e+03, 9.953070e+12
4.875429e+03, 9.884574e+12
4.880304e+03, 1.028642e+13
4.885184e+03, 1.124383e+13
4.890070e+03, 1.171024e+13
4.894960e+03, 1.155058e+13
4.899855e+03, 1.172210e+13
4.904754e+03, 1.158664e+13
4.909659e+03, 1.194763e+13
4.914569e+03, 1.258077e+13
4.919483e+03, 1.256911e+13
4.924403e+03, 1.330935e+13
4.929327e+03, 1.349138e+13
4.934257e+03, 1.482664e+13
4.939191e+03, 1.403825e+13
4.944130e+03, 1.364924e+13
4.949074e+03, 1.400936e+13
4.954023e+03, 1.354532e+13
4.958977e+03, 4.858155e+12
4.963936e+03, 5.625302e+12
4.968900e+03, 6.701950e+12
4.973869e+03, 6.960075e+12
4.978843e+03, 7.441067e+12
4.983822e+03, 7.465088e+12
4.988806e+03, 8.479043e+12
4.993794e+03, 8.265648e+12
4.998788e+03, 8.015648e+12
5.003787e+03, 6.062790e+12
5.008791e+03, 5.875201e+12
5.013800e+03, 6.127118e+12
5.018813e+03, 7.020833e+12
5.023832e+03, 6.580092e+12
5.028856e+03, 7.369328e+12
5.033885e+03, 9.332473e+12
5.038919e+03, 8.171847e+12
5.043958e+03, 7.473115e+12
5.049002e+03, 8.873940e+12
5.054051e+03, 8.690396e+12
5.059105e+03, 8.433722e+12
5.064164e+03, 8.273857e+12
5.069228e+03, 9.016480e+12
5.074297e+03, 9.677318e+12
5.079372e+03, 9.203409e+12
5.084451e+03, 9.935988e+12
5.089535e+03, 9.650140e+12
5.094625e+03, 9.597801e+12
5.099720e+03, 9.292606e+12
5.104819e+03, 1.040688e+13
5.109924e+03, 9.721256e+12
5.115034e+03, 1.224167e+13
5.120149e+03, 1.010349e+13
5.125269e+03, 1.021219e+13
5.130394e+03, 9.167936e+12
5.135525e+03, 1.305706e+13
5.140660e+03, 1.187947e+13
5.145801e+03, 9.801248e+12
5.150947e+03, 1.000118e+13
5.156098e+03, 9.197355e+12
5.161254e+03, 1.586468e+13
5.166415e+03, 1.145335e+13
5.171582e+03, 4.043530e+12
5.176753e+03, 5.210646e+12
5.181930e+03, 4.960593e+12
5.187112e+03, 7.029204e+12
5.192299e+03, 7.774338e+12
5.197491e+03, 8.938596e+12
5.202689e+03, 9.160420e+12
5.207891e+03, 5.411238e+12
5.213099e+03, 9.539124e+12
5.218312e+03, 1.345356e+13
5.223531e+03, 1.490357e+13
5.228754e+03, 1.265148e+13
5.233983e+03, 1.595759e+13
5.239217e+03, 1.599330e+13
5.244456e+03, 1.293088e+13
5.249701e+03, 1.261490e+13
5.254950e+03, 1.510992e+13
5.260205e+03, 1.580030e+13
5.265465e+03, 1.011099e+13
5.270731e+03, 9.869732e+12
5.276002e+03, 1.512601e+13
5.281278e+03, 1.652696e+13
5.286559e+03, 1.732531e+13
5.291846e+03, 1.831640e+13
5.297137e+03, 1.613712e+13
5.302435e+03, 1.722977e+13
5.307737e+03, 2.002036e+13
5.313045e+03, 1.713128e+13
5.318358e+03, 1.791014e+13
5.323676e+03, 1.723339e+13
5.329000e+03, 1.225587e+13
5.334329e+03, 1.737638e+13
5.339663e+03, 1.828090e+13
5.345003e+03, 1.661335e+13
5.350348e+03, 1.700823e+13
5.355698e+03, 2.062988e+13
5.361054e+03, 1.793681e+13
5.366415e+03, 1.721090e+13
5.371781e+03, 1.486354e+13
5.377153e+03, 1.901348e+13
5.382530e+03, 2.003007e+13
5.387913e+03, 2.067305e+13
5.393301e+03, 1.895495e+13
5.398694e+03, 1.614941e+13
5.404093e+03, 1.852373e+13
5.409497e+03, 1.497830e+13
5.414906e+03, 2.006813e+13
5.420321e+03, 2.106116e+13
5.425741e+03, 1.980220e+13
5.431167e+03, 1.751517e+13
5.436598e+03, 1.804069e+13
5.442035e+03, 2.149402e+13
5.447477e+03, 1.644477e+13
5.452924e+03, 1.029638e+13
5.458377e+03, 1.057535e+13
5.463836e+03, 1.240722e+13
5.469300e+03, 1.365402e+13
5.474769e+03, 1.409014e+13
5.480244e+03, 1.447846e+13
5.485724e+03, 1.539253e+13
5.491210e+03, 1.624408e+13
5.496701e+03, 1.490262e+13
5.502198e+03, 1.250935e+13
5.507700e+03, 1.341043e+13
5.513207e+03, 1.320792e+13
5.518721e+03, 1.493275e+13
5.524239e+03, 1.643971e+13
5.529764e+03, 1.686533e+13
5.535293e+03, 1.619065e+13
5.540829e+03, 1.773260e+13
5.546370e+03, 1.755819e+13
5.551916e+03, 1.763581e+13
5.557468e+03, 1.895097e+13
5.563025e+03, 1.903769e+13
5.568588e+03, 1.796828e+13
5.574157e+03, 1.834080e+13
5.579731e+03, 1.890341e+13
5.585311e+03, 1.782379e+13
5.590896e+03, 1.478537e+13
5.596487e+03, 1.590746e+13
5.602083e+03, 1.140256e+13
5.607686e+03, 1.421665e+13
5.613293e+03, 1.462055e+13
5.618907e+03, 1.366805e+13
5.624525e+03, 1.498699e+13
5.630150e+03, 1.416810e+13
5.635780e+03, 1.505953e+13
5.641416e+03, 1.460315e+13
5.647057e+03, 1.555358e+13
5.652704e+03, 1.725600e+13
5.658357e+03, 1.753483e+13
5.664015e+03, 1.493507e+13
5.669679e+03, 1.582494e+13
5.675349e+03, 1.621917e+13
5.681024e+03, 1.794071e+13
5.686705e+03, 1.694269e+13
5.692392e+03, 1.841065e+13
5.698085e+03, 1.844227e+13
5.703783e+03, 1.810910e+13
5.709486e+03, 1.834218e+13
5.715196e+03, 1.887052e+13
5.720911e+03, 2.057971e+13
5.726632e+03, 1.983927e+13
5.732359e+03, 2.106888e+13
5.738091e+03, 2.191512e+13
5.743829e+03, 2.233339e+13
5.749573e+03, 2.266709e+13
5.755323e+03, 2.272558e+13
5.761078e+03, 1.934579e+13
5.766839e+03, 1.846518e+13
5.772606e+03, 1.939594e+13
5.778378e+03, 2.038683e+13
5.784157e+03, 2.076494e+13
5.789941e+03, 2.112749e+13
5.795731e+03, 2.232231e+13
5.801527e+03, 2.239016e+13
5.807328e+03, 2.265093e+13
5.813135e+03, 1.944942e+13
5.818949e+03, 1.950082e+13
5.824768e+03, 2.049295e+13
5.830592e+03, 2.075896e+13
5.836423e+03, 2.110369e+13
5.842259e+03, 2.042383e+13
5.848102e+03, 1.913182e+13
5.853950e+03, 1.652507e+13
5.859804e+03, 1.571429e+13
5.865663e+03, 1.465943e+13
5.871529e+03, 1.401352e+13
5.877401e+03, 1.178047e+13
5.883278e+03, 1.002655e+13
5.889161e+03, 5.762250e+12
5.895050e+03, 4.983776e+12
5.900945e+03, 7.193337e+12
5.906846e+03, 1.014217e+13
5.912753e+03, 1.147608e+13
5.918666e+03, 1.231308e+13
5.924585e+03, 1.251684e+13
5.930509e+03, 1.321116e+13
5.936440e+03, 1.438961e+13
5.942376e+03, 1.499036e+13
5.948319e+03, 1.432591e+13
5.954267e+03, 1.445655e+13
5.960221e+03, 1.424609e+13
5.966181e+03, 1.523741e+13
5.972148e+03, 1.568506e+13
5.978120e+03, 1.573252e+13
5.984098e+03, 1.697873e+13
5.990082e+03, 1.787036e+13
5.996072e+03, 1.783303e+13
6.002068e+03, 1.809424e+13
6.008070e+03, 1.763755e+13
6.014078e+03, 1.926462e+13
6.020092e+03, 1.941427e+13
6.026112e+03, 2.055813e+13
6.032139e+03, 2.143067e+13
6.038171e+03, 2.199750e+13
6.044209e+03, 2.178464e+13
6.050253e+03, 2.301575e+13
6.056303e+03, 2.329078e+13
6.062360e+03, 2.366859e+13
6.068422e+03, 2.371770e+13
6.074490e+03, 2.580126e+13
6.080565e+03, 2.618861e+13
6.086645e+03, 2.688771e+13
6.092732e+03, 2.557939e+13
6.098825e+03, 2.590343e+13
6.104924e+03, 2.145354e+13
6.111029e+03, 2.523529e+13
6.117140e+03, 2.703091e+13
6.123257e+03, 2.040699e+13
6.129380e+03, 2.637809e+13
6.135509e+03, 2.719056e+13
6.141645e+03, 2.768371e+13
6.147787e+03, 2.837706e+13
6.153934e+03, 2.409431e+13
6.160088e+03, 1.817120e+13
6.166248e+03, 1.308045e+13
6.172415e+03, 1.566814e+13
6.178587e+03, 1.642331e+13
6.184766e+03, 1.721794e+13
6.190950e+03, 1.340587e+13
6.197141e+03, 1.439080e+13
6.203338e+03, 1.535952e+13
6.209542e+03, 1.676118e+13
6.215751e+03, 1.295020e+13
6.221967e+03, 1.329755e+13
6.228189e+03, 1.127344e+13
6.234417e+03, 1.258780e+13
6.240652e+03, 1.277114e+13
6.246892e+03, 1.321427e+13
6.253139e+03, 1.483405e+13
6.259392e+03, 1.472568e+13
6.265652e+03, 1.592596e+13
6.271917e+03, 1.648182e+13
6.278189e+03, 1.596809e+13
6.284467e+03, 1.671469e+13
6.290752e+03, 1.716870e+13
6.297043e+03, 1.693309e+13
6.303340e+03, 1.827753e+13
6.309643e+03, 1.817980e+13
6.315953e+03, 2.027330e+13
6.322269e+03, 1.892191e+13
6.328591e+03, 1.979217e+13
6.334920e+03, 2.016761e+13
6.341254e+03, 2.172140e+13
6.347596e+03, 2.291132e+13
6.353943e+03, 2.148795e+13
6.360297e+03, 1.837756e+13
6.366658e+03, 1.880670e+13
6.373024e+03, 1.910998e+13
6.379397e+03, 1.799214e+13
6.385777e+03, 1.731052e+13
6.392162e+03, 1.687018e+13
6.398555e+03, 1.937453e+13
6.404953e+03, 2.045012e+13
6.411358e+03, 2.286804e+13
6.417769e+03, 2.137786e+13
6.424187e+03, 2.095922e+13
6.430611e+03, 2.121915e+13
6.437042e+03, 2.197913e+13
6.443479e+03, 2.156213e+13
6.449923e+03, 2.273712e+13
6.456372e+03, 2.372516e+13
6.462829e+03, 2.135383e+13
6.469292e+03, 2.651718e+13
6.475761e+03, 2.679307e+13
6.482237e+03, 2.610298e+13
6.488719e+03, 2.418240e+13
6.495208e+03, 2.197967e+13
6.501703e+03, 2.469880e+13
6.508205e+03, 2.813084e+13
6.514713e+03, 2.777583e+13
6.521227e+03, 2.847811e+13
6.527749e+03, 2.966879e+13
6.534276e+03, 3.008625e+13
6.540811e+03, 3.154869e+13
6.547352e+03, 2.891339e+13
6.553899e+03, 2.749468e+13
6.560453e+03, 2.836483e+13
6.567013e+03, 2.831043e+13
6.573580e+03, 2.639478e+13
6.580154e+03, 2.779547e+13
6.586734e+03, 2.907101e+13
6.593321e+03, 2.864963e+13
6.599914e+03, 2.922379e+13
6.606514e+03, 2.924215e+13
6.613120e+03, 2.795313e+13
6.619734e+03, 2.733959e+13
6.626353e+03, 2.682553e+13
6.632980e+03, 2.737672e+13
6.639613e+03, 2.700610e+13
6.646252e+03, 2.734240e+13
6.652899e+03, 2.222009e+13
6.659551e+03, 2.128751e+13
6.666211e+03, 2.289263e+13
6.672877e+03, 2.379477e+13
6.679550e+03, 2.213163e+13
6.686230e+03, 1.715575e+13
6.692916e+03, 1.965126e+13
6.699609e+03, 2.033318e+13
6.706308e+03, 1.937396e+13
6.713015e+03, 1.899416e+13
6.719728e+03, 1.484206e+13
6.726447e+03, 1.549672e+13
6.733174e+03, 1.662010e+13
6.739907e+03, 1.704046e+13
6.746647e+03, 1.702722e+13
6.753394e+03, 1.548979e+13
6.760147e+03, 1.654528e+13
6.766907e+03, 1.796713e+13
6.773674e+03, 1.934041e+13
6.780448e+03, 1.795105e+13
6.787228e+03, 1.505599e+13
6.794015e+03, 1.596449e+13
6.800809e+03, 1.686552e+13
6.807610e+03, 1.753597e+13
6.814418e+03, 1.767774e+13
6.821232e+03, 1.743556e+13
6.828053e+03, 1.760336e+13
6.834882e+03, 1.803200e+13
6.841716e+03, 1.795169e+13
6.848558e+03, 1.828281e+13
6.855407e+03, 1.612516e+13
6.862262e+03, 1.583340e+13
6.869124e+03, 1.724564e+13
6.875994e+03, 1.817954e+13
6.882869e+03, 1.818601e+13
6.889752e+03, 1.766849e+13
6.896642e+03, 1.919931e+13
6.903539e+03, 1.893925e+13
6.910442e+03, 2.111326e+13
6.917353e+03, 2.035603e+13
6.924270e+03, 2.190195e+13
6.931194e+03, 2.325012e+13
6.938126e+03, 2.351058e+13
6.945064e+03, 2.552703e+13
6.952009e+03, 2.667520e+13
6.958961e+03, 2.645717e+13
6.965920e+03, 2.766893e+13
6.972886e+03, 2.795658e+13
6.979859e+03, 2.733313e+13
6.986838e+03, 3.051460e+13
6.993825e+03, 2.768656e+13
7.000819e+03, 2.921442e+13
7.007820e+03, 3.007061e+13
7.014828e+03, 3.120308e+13
7.021843e+03, 3.198098e+13
7.028864e+03, 3.637092e+13
7.035893e+03, 3.347196e+13
7.042929e+03, 4.000422e+13
7.049972e+03, 4.266861e+13
7.057022e+03, 2.896239e+13
7.064079e+03, 2.295354e+13
7.071143e+03, 2.725905e+13
7.078214e+03, 2.861016e+13
7.085292e+03, 2.955179e+13
7.092378e+03, 1.783348e+13
7.099470e+03, 1.926143e+13
7.106570e+03, 2.184014e+13
7.113676e+03, 2.329372e+13
7.120790e+03, 2.624584e+13
7.127911e+03, 1.790084e+13
7.135039e+03, 1.529133e+13
7.142174e+03, 1.661021e+13
7.149316e+03, 1.714375e+13
7.156465e+03, 2.046031e+13
7.163622e+03, 1.837637e+13
7.170785e+03, 2.018185e+13
7.177956e+03, 2.237551e+13
7.185134e+03, 2.389191e+13
7.192319e+03, 2.492131e+13
7.199511e+03, 2.256235e+13
7.206711e+03, 2.145571e+13
7.213918e+03, 2.278218e+13
7.221132e+03, 2.513228e+13
7.228353e+03, 2.670434e+13
7.235581e+03, 2.754005e+13
7.242817e+03, 2.850906e+13
7.250059e+03, 3.081662e+13
7.257309e+03, 3.239279e+13
7.264567e+03, 3.364387e+13
7.271831e+03, 3.263556e+13
7.279103e+03, 3.416508e+13
7.286382e+03, 3.550895e+13
7.293669e+03, 3.633202e+13
7.300962e+03, 3.844799e+13
7.308263e+03, 3.865582e+13
7.315572e+03, 4.016499e+13
7.322887e+03, 4.103187e+13
7.330210e+03, 3.870503e+13
7.337540e+03, 4.289734e+13
7.344878e+03, 4.269766e+13
7.352223e+03, 4.359616e+13
7.359575e+03, 4.326153e+13
7.366934e+03, 4.489191e+13
7.374301e+03, 4.655191e+13
7.381676e+03, 4.668587e+13
7.389057e+03, 4.702499e+13
7.396446e+03, 4.776991e+13
7.403843e+03, 4.691482e+13
7.411247e+03, 4.858474e+13
7.418658e+03, 4.771002e+13
7.426077e+03, 4.758320e+13
7.433503e+03, 4.903677e+13
7.440936e+03, 4.923781e+13
7.448377e+03, 4.823847e+13
7.455825e+03, 4.941588e+13
7.463281e+03, 4.827779e+13
7.470745e+03, 5.000699e+13
7.478215e+03, 5.050002e+13
7.485694e+03, 4.963433e+13
7.493179e+03, 4.922233e+13
7.500672e+03, 4.965156e+13
7.508173e+03, 5.036537e+13
7.515681e+03, 5.020723e+13
7.523197e+03, 5.094890e+13
7.530720e+03, 4.990368e+13
7.538251e+03, 5.089033e+13
7.545789e+03, 5.203969e+13
7.553335e+03, 5.172759e+13
7.560888e+03, 5.230672e+13
7.568449e+03, 5.145843e+13
7.576018e+03, 5.054555e+13
7.583594e+03, 5.241916e+13
7.591177e+03, 4.554509e+13
7.598768e+03, 4.549117e+13
7.606367e+03, 4.538558e+13
7.613973e+03, 4.540725e+13
7.621587e+03, 4.794387e+13
7.629209e+03, 4.300143e+13
7.636838e+03, 4.149274e+13
7.644475e+03, 4.190676e+13
7.652120e+03, 4.222216e+13
7.659772e+03, 4.185038e+13
7.667431e+03, 2.704035e+13
7.675099e+03, 3.395645e+13
7.682774e+03, 3.539533e+13
7.690457e+03, 3.656621e+13
7.698147e+03, 3.077656e+13
7.705845e+03, 3.419673e+13
7.713551e+03, 3.635451e+13
7.721265e+03, 3.755877e+13
7.728986e+03, 3.920258e+13
7.736715e+03, 4.113709e+13
7.744452e+03, 3.971160e+13
7.752196e+03, 3.535129e+13
7.759948e+03, 3.685295e+13
7.767708e+03, 3.739737e+13
7.775476e+03, 3.897536e+13
7.783252e+03, 3.759015e+13
7.791035e+03, 3.784428e+13
7.798826e+03, 3.876389e+13
7.806625e+03, 4.112822e+13
7.814431e+03, 4.229681e+13
7.822246e+03, 4.130056e+13
7.830068e+03, 3.937810e+13
7.837898e+03, 3.951605e+13
7.845736e+03, 3.962861e+13
7.853582e+03, 4.160829e+13
7.861435e+03, 4.233682e+13
7.869297e+03, 4.220626e+13
7.877166e+03, 4.371431e+13
7.885043e+03, 4.473825e+13
7.892928e+03, 4.533153e+13
7.900821e+03, 4.578678e+13
7.908722e+03, 4.458206e+13
7.916631e+03, 4.399935e+13
7.924547e+03, 4.510663e+13
7.932472e+03, 4.628633e+13
7.940404e+03, 4.595441e+13
7.948345e+03, 4.592858e+13
7.956293e+03, 4.791293e+13
7.964249e+03, 4.878253e+13
7.972214e+03, 4.955251e+13
7.980186e+03, 4.899774e+13
7.988166e+03, 4.876526e+13
7.996154e+03, 4.934848e+13
8.004150e+03, 4.939276e+13
8.012154e+03, 5.049426e+13
8.020167e+03, 5.114155e+13
8.028187e+03, 5.061108e+13
8.036215e+03, 5.166565e+13
8.044251e+03, 5.182341e+13
8.052295e+03, 5.143285e+13
8.060348e+03, 5.264351e+13
8.068408e+03, 5.180743e+13
8.076476e+03, 5.204207e+13
8.084553e+03, 5.307211e+13
8.092637e+03, 5.343723e+13
8.100730e+03, 5.421031e+13
8.108831e+03, 5.440310e+13
8.116940e+03, 5.282677e+13
8.125057e+03, 5.331142e+13
8.133182e+03, 5.527768e+13
8.141315e+03, 5.525322e+13
8.149456e+03, 5.581972e+13
8.157606e+03, 5.579351e+13
8.165763e+03, 5.479850e+13
8.173929e+03, 5.533994e+13
8.182103e+03, 4.663695e+13
8.190285e+03, 4.942887e+13
8.198475e+03, 4.005323e+13
8.206674e+03, 5.096877e+13
8.214880e+03, 5.266300e+13
8.223095e+03, 5.256582e+13
8.231318e+03, 5.394024e+13
8.239550e+03, 5.423992e+13
8.247789e+03, 5.431226e+13
8.256037e+03, 5.338629e+13
8.264293e+03, 5.455694e+13
8.272557e+03, 5.277129e+13
8.280830e+03, 5.252473e+13
8.289111e+03, 5.212207e+13
8.297400e+03, 5.223924e+13
8.305697e+03, 5.151315e+13
8.314003e+03, 5.235387e+13
8.322317e+03, 5.276313e+13
8.330639e+03, 5.058673e+13
8.338970e+03, 5.187731e+13
8.347309e+03, 5.163857e+13
8.355656e+03, 5.139876e+13
8.364012e+03, 5.089233e+13
8.372376e+03, 5.229361e+13
8.380748e+03, 4.993546e+13
8.389129e+03, 4.764628e+13
8.397518e+03, 5.108279e+13
8.405916e+03, 5.247453e+13
8.414322e+03, 5.122017e+13
8.422736e+03, 5.119658e+13
8.431159e+03, 4.976618e+13
8.439590e+03, 4.397016e+13
8.448029e+03, 4.533189e+13
8.456477e+03, 4.250303e+13
8.464934e+03, 4.372798e+13
8.473399e+03, 4.192819e+13
8.481872e+03, 4.464346e+13
8.490354e+03, 4.545262e+13
8.498845e+03, 4.371628e+13
8.507343e+03, 4.493836e+13
8.515851e+03, 4.402015e+13
8.524367e+03, 4.479999e+13
8.532891e+03, 4.530738e+13
8.541424e+03, 4.256522e+13
8.549965e+03, 4.627510e+13
8.558515e+03, 4.772720e+13
8.567074e+03, 4.828111e+13
8.575641e+03, 4.829547e+13
8.584216e+03, 4.854648e+13
8.592801e+03, 4.895959e+13
8.601393e+03, 4.943525e+13
8.609995e+03, 4.945061e+13
8.618605e+03, 5.038281e+13
8.627223e+03, 5.103388e+13
8.635851e+03, 5.110625e+13
8.644486e+03, 5.165125e+13
8.653131e+03, 5.136248e+13
8.661784e+03, 4.692811e+13
8.670446e+03, 5.163056e+13
8.679116e+03, 5.065773e+13
8.687795e+03, 4.883409e+13
8.696483e+03, 5.045608e+13
8.705180e+03, 5.149044e+13
8.713885e+03, 5.124449e+13
8.722599e+03, 5.159354e+13
8.731321e+03, 5.303520e+13
8.740053e+03, 5.125059e+13
8.748793e+03, 5.291452e+13
8.757542e+03, 5.269323e+13
8.766299e+03, 5.279732e+13
8.775065e+03, 5.405185e+13
8.783840e+03, 5.371155e+13
8.792624e+03, 5.446289e+13
8.801417e+03, 5.337756e+13
8.810218e+03, 5.170765e+13
8.819029e+03, 5.570662e+13
8.827848e+03, 5.158137e+13
8.836675e+03, 5.540481e+13
8.845512e+03, 5.510355e+13
8.854358e+03, 5.581758e+13
8.863212e+03, 4.799231e+13
8.872075e+03, 4.641064e+13
8.880947e+03, 4.744586e+13
8.889828e+03, 4.803484e+13
8.898718e+03, 4.869738e+13
8.907617e+03, 5.040692e+13
8.916524e+03, 5.046420e+13
8.925441e+03, 5.070932e+13
8.934366e+03, 5.030381e+13
8.943301e+03, 4.933803e+13
8.952244e+03, 4.931353e+13
8.961196e+03, 5.006701e+13
8.970157e+03, 5.032719e+13
8.979128e+03, 5.031263e+13
8.988107e+03, 5.192816e+13
8.997095e+03, 5.241704e+13
9.006092e+03, 5.149934e+13
9.015098e+03, 5.059482e+13
9.024113e+03, 5.060135e+13
9.033137e+03, 5.130218e+13
9.042170e+03, 5.252711e+13
9.051213e+03, 5.252636e+13
9.060264e+03, 5.174033e+13
9.069324e+03, 5.275817e+13
9.078393e+03, 5.325065e+13
9.087472e+03, 5.132490e+13
9.096559e+03, 5.326855e+13
9.105656e+03, 5.341493e+13
9.114761e+03, 5.461104e+13
9.123876e+03, 5.404453e+13
9.133000e+03, 5.465469e+13
9.142133e+03, 5.439113e+13
9.151275e+03, 5.417996e+13
9.160426e+03, 5.532002e+13
9.169587e+03, 5.547048e+13
9.178757e+03, 5.429627e+13
9.187935e+03, 5.611784e+13
9.197123e+03, 5.582576e+13
9.206320e+03, 5.481931e+13
9.215527e+03, 5.462587e+13
9.224742e+03, 5.315211e+13
9.233967e+03, 5.219708e+13
9.243201e+03, 5.397892e+13
9.252444e+03, 5.273381e+13
9.261697e+03, 5.315609e+13
9.270958e+03, 5.376115e+13
9.280229e+03, 5.270270e+13
9.289509e+03, 5.272717e+13
9.298799e+03, 5.150931e+13
9.308098e+03, 5.214417e+13
9.317406e+03, 5.228572e+13
9.326723e+03, 5.166548e+13
9.336050e+03, 5.266385e+13
9.345386e+03, 5.287247e+13
9.354731e+03, 5.197565e+13
9.364086e+03, 5.155131e+13
9.373450e+03, 5.222377e+13
9.382824e+03, 5.223908e+13
9.392206e+03, 5.201327e+13
9.401599e+03, 5.184606e+13
9.411000e+03, 5.302183e+13
9.420411e+03, 5.256246e+13
9.429832e+03, 5.337440e+13
9.439262e+03, 5.301708e+13
9.448701e+03, 5.222795e+13
9.458149e+03, 5.328046e+13
9.467608e+03, 5.245984e+13
9.477075e+03, 5.402021e+13
9.486552e+03, 5.361659e+13
9.496039e+03, 5.358272e+13
9.505535e+03, 5.379044e+13
9.515040e+03, 5.333777e+13
9.524555e+03, 5.431729e+13
9.534080e+03, 5.405584e+13
9.543614e+03, 5.370921e+13
9.553158e+03, 5.304406e+13
9.562711e+03, 5.400864e+13
9.572274e+03, 5.431630e+13
9.581846e+03, 5.478578e+13
9.591428e+03, 5.477245e+13
9.601019e+03, 5.213045e+13
9.610620e+03, 5.448745e+13
9.620231e+03, 5.481755e+13
9.629851e+03, 5.491132e+13
9.639481e+03, 5.120149e+13
9.649120e+03, 5.290406e+13
9.658769e+03, 5.397690e+13
9.668428e+03, 5.423714e+13
9.678097e+03, 5.196998e+13
9.687775e+03, 5.314292e+13
9.697463e+03, 5.493161e+13
9.707160e+03, 5.205562e+13
9.716867e+03, 5.406704e+13
9.726584e+03, 5.192732e+13
9.736311e+03, 5.341829e+13
9.746047e+03, 5.162161e+13
9.755793e+03, 5.374075e+13
9.765549e+03, 5.427165e+13
9.775314e+03, 5.218657e+13
9.785090e+03, 5.119879e+13
9.794875e+03, 5.235487e+13
9.804670e+03, 5.422911e+13
9.814474e+03, 5.338298e+13
9.824289e+03, 5.335768e+13
9.834113e+03, 5.261060e+13
9.843947e+03, 5.321298e+13
9.853791e+03, 5.381795e+13
9.863645e+03, 5.346586e+13
9.873509e+03, 5.355508e+13
9.883382e+03, 5.445824e+13
9.893265e+03, 5.375670e+13
9.903159e+03, 4.271490e+13
9.913062e+03, 3.794693e+13
9.922975e+03, 3.991743e+13
9.932898e+03, 4.248975e+13
9.942831e+03, 4.599661e+13
9.952774e+03, 4.776447e+13
9.962726e+03, 4.710823e+13
9.972689e+03, 4.575372e+13
9.982662e+03, 4.735116e+13
9.992644e+03, 4.688787e+13
1.000264e+04, 4.708425e+13
1.001264e+04, 4.721993e+13
1.002265e+04, 4.877109e+13
1.003268e+04, 4.925306e+13
1.004271e+04, 4.836369e+13
1.005275e+04, 4.696684e+13
1.006280e+04, 4.420538e+13
1.007287e+04, 4.887701e+13
1.008294e+04, 5.047391e+13
1.009302e+04, 4.733038e+13
1.010311e+04, 5.105727e+13
1.011322e+04, 4.857408e+13
1.012333e+04, 4.933654e+13
1.013345e+04, 4.873209e+13
1.014359e+04, 4.809978e+13
1.015373e+04, 4.843672e+13
1.016389e+04, 4.633434e+13
1.017405e+04, 4.966582e+13
1.018422e+04, 4.678373e+13
1.019441e+04, 4.862547e+13
1.020460e+04, 4.844017e+13
1.021481e+04, 4.971079e+13
1.022502e+04, 4.749658e+13
1.023525e+04, 4.907884e+13
1.024548e+04, 5.102562e+13
1.025573e+04, 4.763703e+13
1.026598e+04, 4.532032e+13
1.027625e+04, 4.789752e+13
1.028652e+04, 4.667405e+13
1.029681e+04, 4.752294e+13
1.030711e+04, 4.791251e+13
1.031742e+04, 4.869877e+13
1.032773e+04, 4.850285e+13
1.033806e+04, 4.695702e+13
1.034840e+04, 4.492860e+13
1.035875e+04, 4.872513e+13
1.036911e+04, 4.994335e+13
1.037947e+04, 4.827857e+13
1.038985e+04, 4.827869e+13
1.040024e+04, 4.761891e+13
1.041064e+04, 5.069786e+13
1.042106e+04, 4.909574e+13
1.043148e+04, 4.579776e+13
1.044191e+04, 5.036584e+13
1.045235e+04, 5.071881e+13
1.046280e+04, 5.130851e+13
1.047326e+04, 4.558232e+13
1.048374e+04, 4.884946e+13
1.049422e+04, 5.054384e+13
1.050472e+04, 5.092982e+13
1.051522e+04, 4.753073e+13
1.052574e+04, 4.765240e+13
1.053626e+04, 5.199439e+13
1.054680e+04, 4.945453e+13
1.055734e+04, 4.898155e+13
1.056790e+04, 4.822521e+13
1.057847e+04, 5.080458e+13
1.058905e+04, 5.023333e+13
1.059964e+04, 5.157492e+13
1.061024e+04, 4.909543e+13
1.062085e+04, 4.881084e+13
1.063147e+04, 5.062466e+13
1.064210e+04, 5.105487e+13
1.065274e+04, 5.048678e+13
1.066339e+04, 4.944245e+13
1.067406e+04, 4.840392e+13
1.068473e+04, 4.974391e+13
1.069542e+04, 5.086277e+13
1.070611e+04, 4.997528e+13
1.071682e+04, 5.098291e+13
1.072753e+04, 4.905240e+13
1.073826e+04, 5.017549e+13
1.074900e+04, 5.012209e+13
1.075975e+04, 5.085222e+13
1.077051e+04, 5.084635e+13
1.078128e+04, 5.107775e+13
1.079206e+04, 5.045599e+13
1.080285e+04, 5.039445e+13
1.081366e+04, 4.952979e+13
1.082447e+04, 5.083868e+13
1.083529e+04, 5.019358e+13
1.084613e+04, 5.056305e+13
1.085698e+04, 5.005838e+13
1.086783e+04, 5.041033e+13
1.087870e+04, 5.130666e+13
1.088958e+04, 5.009893e+13
1.090047e+04, 5.121560e+13
1.091137e+04, 4.999506e+13
1.092228e+04, 5.010960e+13
1.093320e+04, 5.063199e+13
1.094414e+04, 5.125578e+13
1.095508e+04, 5.043028e+13
1.096604e+04, 5.028188e+13
1.097700e+04, 4.946963e+13
1.098798e+04, 5.001046e+13
1.099897e+04, 5.035732e+13
1.100997e+04, 5.048864e+13
1.102098e+04, 4.909145e+13
1.103200e+04, 4.965560e+13
1.104303e+04, 4.961932e+13
1.105407e+04, 4.891538e+13
1.106513e+04, 4.935059e+13
1.107619e+04, 4.980677e+13
1.108727e+04, 4.942471e+13
1.109835e+04, 4.918884e+13
1.110945e+04, 4.938746e+13
1.112056e+04, 4.858676e+13
1.113168e+04, 4.945509e+13
1.114281e+04, 5.003192e+13
1.115396e+04, 4.903842e+13
1.116511e+04, 4.956032e+13
1.117628e+04, 4.923785e+13
1.118745e+04, 4.972330e+13
1.119864e+04, 4.891013e+13
1.120984e+04, 4.907408e+13
1.122105e+04, 4.903703e+13
1.123227e+04, 4.974450e+13
1.124350e+04, 4.935938e+13
1.125474e+04, 4.732617e+13
1.126600e+04, 4.974761e+13
1.127727e+04, 4.874008e+13
1.128854e+04, 4.915327e+13
1.129983e+04, 4.855087e+13
1.131113e+04, 4.946489e+13
1.132244e+04, 4.946815e+13
1.133376e+04, 4.920658e+13
1.134510e+04, 4.903203e+13
1.135644e+04, 4.864787e+13
1.136780e+04, 4.872889e+13
1.137917e+04, 4.468931e+13
1.139055e+04, 4.648160e+13
1.140194e+04, 4.341951e+13
1.141334e+04, 4.668141e+13
1.142475e+04, 4.801607e+13
1.143618e+04, 4.882864e+13
1.144761e+04, 4.805314e+13
1.145906e+04, 4.844810e+13
1.147052e+04, 4.858801e+13
1.148199e+04, 4.816567e+13
1.149347e+04, 4.865337e+13
1.150497e+04, 4.887817e+13
1.151647e+04, 4.897093e+13
1.152799e+04, 4.893575e+13
1.153952e+04, 4.852791e+13
1.155106e+04, 4.826775e+13
1.156261e+04, 4.838897e+13
1.157417e+04, 4.853322e+13
1.158574e+04, 4.858787e+13
1.159733e+04, 4.771493e+13
1.160893e+04, 4.592356e+13
1.162054e+04, 4.846093e+13
1.163216e+04, 4.836975e+13
1.164379e+04, 4.708801e+13
1.165543e+04, 4.800459e+13
1.166709e+04, 4.836038e+13
1.167875e+04, 4.812503e+13
1.169043e+04, 4.502781e+13
1.170212e+04, 4.807890e+13
1.171383e+04, 4.795758e+13
1.172554e+04, 4.835089e+13
1.173726e+04, 4.768085e+13
1.174900e+04, 4.781651e+13
1.176075e+04, 4.779699e+13
1.177251e+04, 4.306805e+13
1.178428e+04, 4.624145e+13
1.179607e+04, 4.707796e+13
1.180786e+04, 4.762935e+13
1.181967e+04, 4.769021e+13
1.183149e+04, 4.561502e+13
1.184332e+04, 4.759910e+13
1.185517e+04, 4.725259e+13
1.186702e+04, 4.746204e+13
1.187889e+04, 4.742461e+13
1.189077e+04, 4.367731e+13
1.190266e+04, 4.747236e+13
1.191456e+04, 4.701935e+13
1.192648e+04, 4.741337e+13
1.193840e+04, 4.673322e+13
1.195034e+04, 4.605519e+13
1.196229e+04, 4.580508e+13
1.197425e+04, 4.334431e+13
1.198623e+04, 4.624476e+13
1.199821e+04, 4.592879e+13
1.201021e+04, 4.613621e+13
1.202222e+04, 4.628745e+13
1.203424e+04, 4.587944e+13
1.204628e+04, 4.622898e+13
1.205833e+04, 4.675307e+13
1.207038e+04, 4.597702e+13
1.208245e+04, 4.595542e+13
1.209454e+04, 4.588798e+13
1.210663e+04, 4.581188e+13
1.211874e+04, 4.573038e+13
1.213086e+04, 4.599428e+13
1.214299e+04, 4.638073e+13
1.215513e+04, 4.636809e+13
1.216729e+04, 4.609204e+13
1.217945e+04, 4.634376e+13
1.219163e+04, 4.610486e+13
1.220382e+04, 4.550935e+13
1.221603e+04, 4.583304e+13
1.222824e+04, 4.598495e+13
1.224047e+04, 4.562993e+13
1.225271e+04, 4.605926e+13
1.226497e+04, 4.606590e+13
1.227723e+04, 4.578571e+13
1.228951e+04, 4.588842e+13
1.230180e+04, 4.569579e+13
1.231410e+04, 4.557524e+13
1.232641e+04, 4.519615e+13
1.233874e+04, 4.547230e+13
1.235108e+04, 4.558087e+13
1.236343e+04, 4.521460e+13
1.237579e+04, 4.554228e+13
1.238817e+04, 4.494433e+13
1.240056e+04, 4.512063e+13
1.241296e+04, 4.406764e+13
1.242537e+04, 4.378455e+13
1.243780e+04, 4.270357e+13
1.245023e+04, 4.475500e+13
1.246268e+04, 4.455072e+13
1.247515e+04, 4.426815e+13
1.248762e+04, 4.475991e+13
1.250011e+04, 4.422942e+13
1.251261e+04, 4.434503e+13
1.252512e+04, 4.162482e+13
1.253765e+04, 4.455899e+13
1.255018e+04, 4.404292e+13
1.256273e+04, 4.412350e+13
1.257530e+04, 4.416377e+13
1.258787e+04, 4.428528e+13
1.260046e+04, 4.392454e+13
1.261306e+04, 4.417707e+13
1.262567e+04, 4.405176e+13
1.263830e+04, 4.345969e+13
1.265094e+04, 4.418968e+13
1.266359e+04, 4.394181e+13
1.267625e+04, 4.308160e+13
1.268893e+04, 4.335665e+13
1.270162e+04, 4.382371e+13
1.271432e+04, 4.385347e+13
1.272703e+04, 4.424781e+13
1.273976e+04, 4.325756e+13
1.275250e+04, 4.346092e+13
1.276525e+04, 4.383918e+13
1.277802e+04, 4.361632e+13
1.279080e+04, 4.385321e+13
1.280359e+04, 4.362856e+13
1.281639e+04, 4.293859e+13
1.282921e+04, 4.163168e+13
1.284204e+04, 4.342428e+13
1.285488e+04, 4.268538e+13
1.286773e+04, 4.291815e+13
1.288060e+04, 4.260344e+13
1.289348e+04, 4.281805e+13
1.290637e+04, 4.140594e+13
1.291928e+04, 4.234932e+13
1.293220e+04, 4.248329e+13
1.294513e+04, 4.239957e+13
1.295808e+04, 4.312764e+13
1.297104e+04, 4.290653e+13
1.298401e+04, 4.261234e+13
1.299699e+04, 4.247004e+13
1.300999e+04, 4.227427e+13
1.302300e+04, 4.298458e+13
1.303602e+04, 4.215803e+13
1.304906e+04, 4.268789e+13
1.306211e+04, 4.250777e+13
1.307517e+04, 4.214530e+13
1.308824e+04, 4.212189e+13
1.310133e+04, 4.223112e+13
1.311443e+04, 4.224680e+13
1.312755e+04, 3.894181e+13
1.314067e+04, 4.114407e+13
1.315382e+04, 3.966145e+13
1.316697e+04, 4.222272e+13
1.318014e+04, 4.221329e+13
1.319332e+04, 4.238019e+13
1.320651e+04, 4.156784e+13
1.321972e+04, 4.148327e+13
1.323294e+04, 4.183223e+13
1.324617e+04, 4.170701e+13
1.325941e+04, 4.143331e+13
1.327267e+04, 4.099419e+13
1.328595e+04, 4.102785e+13
1.329923e+04, 4.046394e+13
1.331253e+04, 4.055878e+13
1.332584e+04, 3.894758e+13
1.333917e+04, 4.021092e+13
1.335251e+04, 3.721741e+13
1.336586e+04, 3.845291e+13
1.337923e+04, 3.789340e+13
1.339261e+04, 3.887042e+13
1.340600e+04, 3.856906e+13
1.341941e+04, 3.803125e+13
1.343283e+04, 3.773532e+13
1.344626e+04, 3.788122e+13
1.345970e+04, 3.857532e+13
1.347316e+04, 3.783010e+13
1.348664e+04, 3.828236e+13
1.350012e+04, 3.764836e+13
1.351362e+04, 3.804998e+13
1.352714e+04, 3.815162e+13
1.354066e+04, 3.749924e+13
1.355421e+04, 3.767899e+13
1.356776e+04, 3.831106e+13
1.358133e+04, 3.761943e+13
1.359491e+04, 3.779702e+13
1.360850e+04, 3.774731e+13
1.362211e+04, 3.693778e+13
1.363573e+04, 3.723606e+13
1.364937e+04, 3.722223e+13
1.366302e+04, 3.777728e+13
1.367668e+04, 3.789900e+13
1.369036e+04, 3.737255e+13
1.370405e+04, 3.783214e+13
1.371775e+04, 3.772425e+13
1.373147e+04, 3.769964e+13
1.374520e+04, 3.781440e+13
1.375895e+04, 3.793390e+13
1.377271e+04, 3.779202e+13
1.378648e+04, 3.743024e+13
1.380027e+04, 3.792758e+13
1.381407e+04, 3.801412e+13
1.382788e+04, 3.706283e+13
1.384171e+04, 3.766208e+13
1.385555e+04, 3.701615e+13
1.386941e+04, 3.713666e+13
1.388327e+04, 3.643554e+13
1.389716e+04, 3.676380e+13
1.391106e+04, 3.379777e+13
1.392497e+04, 3.458143e+13
1.393889e+04, 3.485583e+13
1.395283e+04, 3.535559e+13
1.396678e+04, 3.601664e+13
1.398075e+04, 3.449027e+13
1.399473e+04, 3.513568e+13
1.400873e+04, 3.504460e+13
1.402273e+04, 3.563929e+13
1.403676e+04, 3.611721e+13
1.405079e+04, 3.508955e+13
1.406484e+04, 3.549484e+13
1.407891e+04, 3.528159e+13
1.409299e+04, 3.486813e+13
1.410708e+04, 3.495783e+13
1.412119e+04, 3.423982e+13
1.413531e+04, 3.461503e+13
1.414944e+04, 3.485488e+13
1.416359e+04, 3.460744e+13
1.417776e+04, 3.396260e+13
1.419194e+04, 3.390298e+13
1.420613e+04, 3.504995e+13
1.422033e+04, 3.432813e+13
1.423455e+04, 3.377600e+13
1.424879e+04, 3.449560e+13
1.426304e+04, 3.381886e+13
1.427730e+04, 3.416147e+13
1.429158e+04, 3.354478e+13
1.430587e+04, 3.466045e+13
1.432018e+04, 3.432690e+13
1.433450e+04, 3.393201e+13
1.434883e+04, 3.363288e+13
1.436318e+04, 3.358850e+13
1.437754e+04, 3.410229e+13
1.439192e+04, 3.358192e+13
1.440631e+04, 3.360782e+13
1.442072e+04, 3.384542e+13
1.443514e+04, 3.454327e+13
1.444957e+04, 3.328929e+13
1.446402e+04, 3.384320e+13
1.447849e+04, 3.395273e+13
1.449297e+04, 3.400172e+13
1.450746e+04, 3.310461e+13
1.452197e+04, 3.394766e+13
1.453649e+04, 3.376982e+13
1.455102e+04, 3.411068e+13
1.456558e+04, 3.219429e+13
1.458014e+04, 3.404688e+13
1.459472e+04, 3.399702e+13
1.460932e+04, 3.123244e+13
1.462393e+04, 3.131483e+13
1.463855e+04, 3.273493e+13
1.465319e+04, 3.286075e+13
1.466784e+04, 3.227330e+13
1.468251e+04, 3.179763e+13
1.469719e+04, 3.148838e+13
1.471189e+04, 3.226567e+13
1.472660e+04, 3.310739e+13
1.474133e+04, 3.225623e+13
1.475607e+04, 3.219599e+13
1.477082e+04, 3.171052e+13
1.478560e+04, 3.225008e+13
1.480038e+04, 3.137151e+13
1.481518e+04, 3.213584e+13
1.483000e+04, 3.265341e+13
1.484483e+04, 3.241408e+13
1.485967e+04, 3.246652e+13
1.487453e+04, 3.214820e+13
1.488941e+04, 3.097324e+13
1.490429e+04, 3.166154e+13
1.491920e+04, 3.278168e+13
1.493412e+04, 3.239357e+13
1.494905e+04, 3.242032e+13
1.496400e+04, 3.256838e+13
1.497897e+04, 3.272403e+13
1.499394e+04, 3.261474e+13
1.500894e+04, 3.144528e+13
1.502395e+04, 3.012775e+13
1.503897e+04, 3.158193e+13
1.505401e+04, 3.123932e+13
1.506906e+04, 3.222011e+13
1.508413e+04, 3.181463e+13
1.509922e+04, 3.255374e+13
1.511432e+04, 3.217705e+13
1.512943e+04, 3.151533e+13
1.514456e+04, 3.168250e+13
1.515970e+04, 3.170406e+13
1.517486e+04, 3.064556e+13
1.519004e+04, 3.237200e+13
1.520523e+04, 3.214023e+13
1.522043e+04, 3.257171e+13
1.523566e+04, 3.228513e+13
1.525089e+04, 3.198726e+13
1.526614e+04, 3.098747e+13
1.528141e+04, 3.079435e+13
1.529669e+04, 3.226244e+13
1.531199e+04, 3.234768e+13
1.532730e+04, 3.081327e+13
1.534263e+04, 3.169436e+13
1.535797e+04, 3.231067e+13
1.537333e+04, 3.081073e+13
1.538870e+04, 3.079895e+13
1.540409e+04, 3.030504e+13
1.541949e+04, 3.039552e+13
1.543491e+04, 3.042071e+13
1.545035e+04, 3.211090e+13
1.546580e+04, 3.143309e+13
1.548126e+04, 3.133402e+13
1.549674e+04, 3.150586e+13
1.551224e+04, 3.070697e+13
1.552775e+04, 3.219871e+13
1.554328e+04, 3.000950e+13
1.555882e+04, 3.078988e+13
1.557438e+04, 3.025437e+13
1.558996e+04, 3.155521e+13
1.560555e+04, 3.132398e+13
1.562115e+04, 3.149972e+13
1.563677e+04, 3.115629e+13
1.565241e+04, 3.030599e+13
1.566806e+04, 3.181728e+13
1.568373e+04, 3.173930e+13
1.569941e+04, 3.121031e+13
1.571511e+04, 3.090428e+13
1.573083e+04, 3.016659e+13
1.574656e+04, 3.113498e+13
1.576231e+04, 3.026460e+13
1.577807e+04, 3.018714e+13
1.579385e+04, 3.181986e+13
1.580964e+04, 3.171306e+13
1.582545e+04, 3.138008e+13
1.584128e+04, 3.081844e+13
1.585712e+04, 3.186296e+13
1.587297e+04, 3.153524e+13
1.588885e+04, 3.022786e+13
1.590474e+04, 3.003933e+13
1.592064e+04, 3.067570e+13
1.593656e+04, 3.143269e+13
1.595250e+04, 3.181014e+13
1.596845e+04, 3.159429e+13
1.598442e+04, 3.151639e+13
1.600040e+04, 3.151289e+13
1.601640e+04, 3.144142e+13
1.603242e+04, 3.149940e+13
1.604845e+04, 3.045494e+13
1.606450e+04, 2.955222e+13
1.608057e+04, 3.021221e+13
1.609665e+04, 3.160548e+13
1.611274e+04, 3.133447e+13
1.612886e+04, 3.109165e+13
1.614498e+04, 3.070630e+13
1.616113e+04, 2.918978e+13
1.617729e+04, 3.154805e+13
1.619347e+04, 2.914058e+13
1.620966e+04, 2.917438e+13
1.622587e+04, 3.001163e+13
1.624210e+04, 3.044460e+13
1.625834e+04, 2.904421e+13
1.627460e+04, 3.084551e+13
1.629087e+04, 3.141090e+13
1.630716e+04, 3.080373e+13
1.632347e+04, 3.053771e+13
1.633979e+04, 3.096189e+13
1.635613e+04, 2.954328e+13
1.637249e+04, 2.998111e+13
1.638886e+04, 3.056816e+13
1.640525e+04, 3.069973e+13
1.642166e+04, 3.083116e+13
1.643808e+04, 3.088138e+13
1.645452e+04, 2.858263e+13
1.647097e+04, 3.037404e+13
1.648744e+04, 3.071749e+13
1.650393e+04, 3.084501e+13
1.652043e+04, 3.036760e+13
1.653695e+04, 2.920927e+13
1.655349e+04, 3.091339e+13
1.657004e+04, 3.092252e+13
1.658661e+04, 3.010177e+13
1.660320e+04, 3.026312e+13
1.661980e+04, 3.024755e+13
1.663642e+04, 3.048113e+13
1.665306e+04, 2.922422e+13
1.666971e+04, 2.983632e+13
1.668638e+04, 3.020328e+13
1.670307e+04, 2.980350e+13
1.671977e+04, 2.764544e+13
1.673649e+04, 2.942527e+13
1.675323e+04, 2.778606e+13
1.676998e+04, 2.919774e+13
1.678675e+04, 3.022331e+13
1.680354e+04, 3.000005e+13
1.682034e+04, 3.011760e+13
1.683716e+04, 2.988828e+13
1.685400e+04, 2.987000e+13
1.687085e+04, 2.864277e+13
1.688772e+04, 2.835350e+13
1.690461e+04, 2.742424e+13
1.692152e+04, 2.892773e+13
1.693844e+04, 2.946488e+13
1.695538e+04, 2.899875e+13
1.697233e+04, 2.897436e+13
1.698930e+04, 2.911732e+13
1.700629e+04, 2.859525e+13
1.702330e+04, 2.888512e+13
1.704032e+04, 2.872569e+13
1.705736e+04, 2.786562e+13
1.707442e+04, 2.736818e+13
1.709149e+04, 2.783784e+13
1.710859e+04, 2.480448e+13
1.712569e+04, 2.758237e+13
1.714282e+04, 2.760621e+13
1.715996e+04, 2.748534e+13
1.717712e+04, 2.683450e+13
1.719430e+04, 2.658205e+13
1.721149e+04, 2.702276e+13
1.722871e+04, 2.624658e+13
1.724593e+04, 2.634835e+13
1.726318e+04, 2.647539e+13
1.728044e+04, 2.685200e+13
1.729772e+04, 2.665934e+13
1.731502e+04, 2.541298e+13
1.733234e+04, 2.583382e+13
1.734967e+04, 2.491245e+13
1.736702e+04, 2.613133e+13
1.738439e+04, 2.577593e+13
1.740177e+04, 2.543720e+13
1.741917e+04, 2.513645e+13
1.743659e+04, 2.511943e+13
1.745403e+04, 2.558906e+13
1.747148e+04, 2.512188e+13
1.748895e+04, 2.534193e+13
1.750644e+04, 2.442405e+13
1.752395e+04, 2.488857e+13
1.754147e+04, 2.396616e+13
1.755901e+04, 2.347225e+13
1.757657e+04, 2.441427e+13
1.759415e+04, 2.372087e+13
1.761174e+04, 2.364451e+13
1.762936e+04, 2.338690e+13
1.764699e+04, 2.392387e+13
1.766463e+04, 2.383336e+13
1.768230e+04, 2.275219e+13
1.769998e+04, 2.394394e+13
1.771768e+04, 2.275987e+13
1.773540e+04, 2.343626e+13
1.775313e+04, 2.286023e+13
1.777089e+04, 2.212767e+13
1.778866e+04, 2.229843e+13
1.780644e+04, 2.263888e+13
1.782425e+04, 2.148472e+13
1.784208e+04, 2.266436e+13
1.785992e+04, 2.153629e+13
1.787778e+04, 2.159860e+13
1.789566e+04, 2.247593e+13
1.791355e+04, 2.144392e+13
1.793146e+04, 2.195869e+13
1.794940e+04, 2.161811e+13
1.796735e+04, 2.130735e+13
1.798531e+04, 2.195574e+13
1.800330e+04, 2.057180e+13
1.802130e+04, 2.076105e+13
1.803932e+04, 2.079963e+13
1.805736e+04, 2.073183e+13
1.807542e+04, 2.088139e+13
1.809349e+04, 2.138675e+13
1.811159e+04, 2.016522e+13
1.812970e+04, 2.050451e+13
1.814783e+04, 2.109988e+13
1.816598e+04, 2.100440e+13
1.818414e+04, 2.035595e+13
1.820233e+04, 1.992096e+13
1.822053e+04, 1.968453e+13
1.823875e+04, 2.173264e+13
1.825699e+04, 1.963534e+13
1.827525e+04, 1.991036e+13
1.829352e+04, 2.036085e+13
1.831181e+04, 2.019443e+13
1.833013e+04, 1.983988e+13
1.834846e+04, 2.012830e+13
1.836681e+04, 2.012153e+13
1.838517e+04, 1.983323e+13
1.840356e+04, 1.966527e+13
1.842196e+04, 1.940549e+13
1.844038e+04, 1.874834e+13
1.845882e+04, 1.900111e+13
1.847728e+04, 1.733014e+13
1.849576e+04, 1.872245e+13
1.851425e+04, 1.948022e+13
1.853277e+04, 1.856263e+13
1.855130e+04, 1.916184e+13
1.856985e+04, 1.765697e+13
1.858842e+04, 1.755311e+13
1.860701e+04, 1.758885e+13
1.862562e+04, 1.861009e+13
1.864424e+04, 1.817104e+13
1.866289e+04, 1.864659e+13
1.868155e+04, 1.852918e+13
1.870023e+04, 1.901627e+13
1.871893e+04, 1.816866e+13
1.873765e+04, 1.754091e+13
1.875639e+04, 1.843714e+13
1.877515e+04, 1.806577e+13
1.879392e+04, 1.774555e+13
1.881272e+04, 1.826285e+13
1.883153e+04, 1.922736e+13
1.885036e+04, 1.775868e+13
1.886921e+04, 1.829190e+13
1.888808e+04, 1.826139e+13
1.890697e+04, 1.819044e+13
1.892587e+04, 1.717839e+13
1.894480e+04, 1.803044e+13
1.896374e+04, 1.845268e+13
1.898271e+04, 1.772625e+13
1.900169e+04, 1.851638e+13
1.902069e+04, 1.799515e+13
1.903971e+04, 1.796092e+13
1.905875e+04, 1.746700e+13
1.907781e+04, 1.803218e+13
1.909689e+04, 1.784094e+13
1.911599e+04, 1.733170e+13
1.913510e+04, 1.830598e+13
1.915424e+04, 1.790347e+13
1.917339e+04, 1.756623e+13
1.919257e+04, 1.792222e+13
1.921176e+04, 1.769144e+13
1.923097e+04, 1.748677e+13
1.925020e+04, 1.753395e+13
1.926945e+04, 1.737281e+13
1.928872e+04, 1.721238e+13
1.930801e+04, 1.452013e+13
1.932732e+04, 1.619517e+13
1.934664e+04, 1.708840e+13
1.936599e+04, 1.740048e+13
1.938536e+04, 1.697886e+13
1.940474e+04, 1.680194e+13
1.942415e+04, 1.676511e+13
1.944357e+04, 1.549379e+13
1.946301e+04, 1.369614e+13
1.948248e+04, 1.592985e+13
1.950196e+04, 1.504365e+13
1.952146e+04, 1.539921e+13
1.954098e+04, 1.668260e+13
1.956052e+04, 1.638067e+13
1.958009e+04, 1.744859e+13
1.959967e+04, 1.664232e+13
1.961927e+04, 1.656129e+13
1.963888e+04, 1.635563e+13
1.965852e+04, 1.684180e+13
1.967818e+04, 1.677893e+13
1.969786e+04, 1.677837e+13
1.971756e+04, 1.641713e+13
1.973728e+04, 1.581308e+13
1.975701e+04, 1.498306e+13
1.977677e+04, 1.268180e+13
1.979655e+04, 1.422242e+13
1.981634e+04, 1.510650e+13
1.983616e+04, 1.561033e+13
1.985600e+04, 1.431533e+13
1.987585e+04, 1.406712e+13
1.989573e+04, 1.535792e+13
1.991562e+04, 1.476065e+13
1.993554e+04, 1.514908e+13
1.995547e+04, 1.562739e+13
1.997543e+04, 1.502584e+13
1.999541e+04, 1.551820e+13
2.001540e+04, 1.553342e+13
2.003542e+04, 1.587842e+13
2.005545e+04, 1.564253e+13
2.007551e+04, 1.584709e+13
2.009558e+04, 1.514375e+13
2.011568e+04, 1.509327e+13
2.013579e+04, 1.531516e+13
2.015593e+04, 1.536379e+13
2.017609e+04, 1.534201e+13
2.019626e+04, 1.458635e+13
2.021646e+04, 1.560543e+13
2.023667e+04, 1.534256e+13
2.025691e+04, 1.505149e+13
2.027717e+04, 1.486172e+13
2.029744e+04, 1.482016e+13
2.031774e+04, 1.519339e+13
2.033806e+04, 1.505176e+13
2.035840e+04, 1.484234e+13
2.037876e+04, 1.504491e+13
2.039914e+04, 1.483613e+13
2.041953e+04, 1.505656e+13
2.043995e+04, 1.459143e+13
2.046039e+04, 1.467799e+13
2.048085e+04, 1.469505e+13
2.050134e+04, 1.457123e+13
2.052184e+04, 1.491891e+13
2.054236e+04, 1.436162e+13
2.056290e+04, 1.456785e+13
2.058346e+04, 1.484162e+13
2.060405e+04, 1.448043e+13
2.062465e+04, 1.461999e+13
2.064528e+04, 1.407693e+13
2.066592e+04, 1.442914e+13
2.068659e+04, 1.438711e+13
2.070727e+04, 1.469098e+13
2.072798e+04, 1.416830e+13
2.074871e+04, 1.431137e+13
2.076946e+04, 1.429682e+13
2.079023e+04, 1.438622e+13
2.081102e+04, 1.419603e+13
2.083183e+04, 1.422401e+13
2.085266e+04, 1.415961e+13
2.087351e+04, 1.412063e+13
2.089439e+04, 1.391217e+13
2.091528e+04, 1.444612e+13
2.093620e+04, 1.415527e+13
2.095713e+04, 1.400143e+13
2.097809e+04, 1.408779e+13
2.099907e+04, 1.393308e+13
2.102007e+04, 1.407464e+13
2.104109e+04, 1.414049e+13
2.106213e+04, 1.405662e+13
2.108319e+04, 1.377147e+13
2.110427e+04, 1.411855e+13
2.112538e+04, 1.371749e+13
2.114650e+04, 1.408181e+13
2.116765e+04, 1.361345e+13
2.118882e+04, 1.390556e+13
2.121001e+04, 1.389718e+13
2.123122e+04, 1.391195e+13
2.125245e+04, 1.386384e+13
2.127370e+04, 1.376173e+13
2.129497e+04, 1.367284e+13
2.131627e+04, 1.384642e+13
2.133758e+04, 1.382516e+13
2.135892e+04, 1.389796e+13
2.138028e+04, 1.358238e+13
2.140166e+04, 1.363247e+13
2.142306e+04, 1.365290e+13
2.144449e+04, 1.401539e+13
2.146593e+04, 1.383228e+13
2.148740e+04, 1.359173e+13
2.150888e+04, 1.361579e+13
2.153039e+04, 1.354388e+13
2.155192e+04, 1.365317e+13
2.157347e+04, 1.370041e+13
2.159505e+04, 1.357071e+13
2.161664e+04, 1.374695e+13
2.163826e+04, 1.349920e+13
2.165990e+04, 1.360912e+13
2.168156e+04, 1.369944e+13
2.170324e+04, 1.355846e+13
2.172494e+04, 1.351216e+13
2.174667e+04, 1.354201e+13
2.176841e+04, 1.342420e+13
2.179018e+04, 1.324708e+13
2.181197e+04, 1.342531e+13
2.183378e+04, 1.328199e+13
2.185562e+04, 1.344431e+13
2.187747e+04, 1.342361e+13
2.189935e+04, 1.321255e+13
2.192125e+04, 1.335500e+13
2.194317e+04, 1.339914e+13
2.196512e+04, 1.331739e+13
2.198708e+04, 1.332204e+13
2.200907e+04, 1.325461e+13
2.203108e+04, 1.311175e+13
2.205311e+04, 1.233349e+13
2.207516e+04, 1.270332e+13
2.209724e+04, 1.242532e+13
2.211933e+04, 1.317993e+13
2.214145e+04, 1.318765e+13
2.216359e+04, 1.313213e+13
2.218576e+04, 1.315201e+13
2.220794e+04, 1.290914e+13
2.223015e+04, 1.301658e+13
2.225238e+04, 1.320934e+13
2.227463e+04, 1.283703e+13
2.229691e+04, 1.293695e+13
2.231921e+04, 1.302214e+13
2.234152e+04, 1.287656e+13
2.236387e+04, 1.294067e+13
2.238623e+04, 1.293670e+13
2.240862e+04, 1.289916e+13
2.243102e+04, 1.288441e+13
2.245346e+04, 1.287002e+13
2.247591e+04, 1.283037e+13
2.249839e+04, 1.284176e+13
2.252088e+04, 1.284361e+13
2.254340e+04, 1.273478e+13
2.256595e+04, 1.279276e+13
2.258851e+04, 1.265835e+13
2.261110e+04, 1.215890e+13
2.263371e+04, 1.191617e+13
2.265635e+04, 1.183678e+13
2.267900e+04, 1.254744e+13
2.270168e+04, 1.249388e+13
2.272438e+04, 1.250136e+13
2.274711e+04, 1.254727e+13
2.276986e+04, 1.253504e+13
2.279263e+04, 1.241236e+13
2.281542e+04, 1.239659e+13
2.283823e+04, 1.220253e+13
2.286107e+04, 1.242430e+13
2.288393e+04, 1.234663e+13
2.290682e+04, 1.234591e+13
2.292972e+04, 1.150994e+13
2.295265e+04, 1.099188e+13
2.297561e+04, 1.128385e+13
2.299858e+04, 1.163714e+13
2.302158e+04, 1.160731e+13
2.304460e+04, 1.166169e+13
2.306765e+04, 1.137451e+13
2.309071e+04, 1.165303e+13
2.311380e+04, 1.152659e+13
2.313692e+04, 1.157996e+13
2.316006e+04, 1.146682e+13
2.318322e+04, 1.153174e+13
2.320640e+04, 1.149134e+13
2.322961e+04, 1.020942e+13
2.325283e+04, 1.054513e+13
2.327609e+04, 1.092725e+13
2.329936e+04, 1.079168e+13
2.332266e+04, 1.105138e+13
2.334599e+04, 1.052629e+13
2.336933e+04, 1.068542e+13
2.339270e+04, 1.032810e+13
2.341609e+04, 1.094692e+13
2.343951e+04, 1.075532e+13
2.346295e+04, 1.094980e+13
2.348641e+04, 1.084246e+13
2.350990e+04, 1.075404e+13
2.353341e+04, 9.412945e+12
2.355694e+04, 1.022586e+13
2.358050e+04, 1.020546e+13
2.360408e+04, 1.028159e+13
2.362768e+04, 1.030538e+13
2.365131e+04, 1.053795e+13
2.367496e+04, 1.030780e+13
2.369864e+04, 1.036223e+13
2.372234e+04, 1.045830e+13
2.374606e+04, 1.027170e+13
2.376980e+04, 1.037066e+13
2.379357e+04, 1.023034e+13
2.381737e+04, 9.956551e+12
2.384119e+04, 9.150081e+12
2.386503e+04, 9.480071e+12
2.388889e+04, 9.645481e+12
2.391278e+04, 9.609949e+12
2.393669e+04, 9.842864e+12
2.396063e+04, 9.525077e+12
2.398459e+04, 9.635474e+12
2.400858e+04, 9.551480e+12
2.403258e+04, 9.362100e+12
2.405662e+04, 9.433976e+12
2.408067e+04, 9.105414e+12
2.410475e+04, 9.211765e+12
2.412886e+04, 9.106283e+12
2.415299e+04, 8.791240e+12
2.417714e+04, 8.901249e+12
2.420132e+04, 9.011603e+12
2.422552e+04, 8.622314e+12
2.424974e+04, 9.009037e+12
2.427399e+04, 8.582784e+12
2.429827e+04, 8.916294e+12
2.432257e+04, 8.683588e+12
2.434689e+04, 8.546869e+12
2.437124e+04, 8.241824e+12
2.439561e+04, 8.834448e+12
2.442000e+04, 8.413404e+12
2.444442e+04, 8.275370e+12
2.446887e+04, 8.254869e+12
2.449334e+04, 8.150814e+12
2.451783e+04, 8.125671e+12
2.454235e+04, 7.684904e+12
2.456689e+04, 8.343086e+12
2.459146e+04, 8.175559e+12
2.461605e+04, 7.622995e+12
2.464066e+04, 8.201297e+12
2.466530e+04, 7.830059e+12
2.468997e+04, 7.794232e+12
2.471466e+04, 7.884060e+12
2.473937e+04, 7.445197e+12
2.476411e+04, 7.773370e+12
2.478888e+04, 7.631767e+12
2.481367e+04, 7.236043e+12
2.483848e+04, 7.834295e+12
2.486332e+04, 7.087206e+12
2.488818e+04, 6.988851e+12
2.491307e+04, 6.855826e+12
2.493798e+04, 7.129955e+12
2.496292e+04, 7.220478e+12
2.498788e+04, 6.858732e+12
2.501287e+04, 7.070040e+12
2.503788e+04, 6.814083e+12
2.506292e+04, 6.658220e+12
2.508799e+04, 7.148613e+12
2.511307e+04, 6.870475e+12
2.513819e+04, 6.764699e+12
2.516332e+04, 6.818274e+12
2.518849e+04, 6.882174e+12
2.521368e+04, 6.887648e+12
2.523889e+04, 6.655023e+12
2.526413e+04, 6.671089e+12
2.528939e+04, 6.582305e+12
2.531468e+04, 6.959645e+12
2.534000e+04, 6.654518e+12
2.536534e+04, 6.416342e+12
2.539070e+04, 6.644946e+12
2.541609e+04, 6.615563e+12
2.544151e+04, 6.541001e+12
2.546695e+04, 6.721319e+12
2.549242e+04, 6.475725e+12
2.551791e+04, 6.620074e+12
2.554343e+04, 6.623146e+12
2.556897e+04, 6.556386e+12
2.559454e+04, 6.634197e+12
2.562014e+04, 6.316301e+12
2.564576e+04, 6.549233e+12
2.567140e+04, 6.501507e+12
2.569707e+04, 6.385542e+12
2.572277e+04, 6.831059e+12
2.574849e+04, 6.317101e+12
2.577424e+04, 6.144723e+12
2.580002e+04, 6.648854e+12
2.582582e+04, 6.319522e+12
2.585164e+04, 6.678797e+12
2.587749e+04, 6.448097e+12
2.590337e+04, 6.392165e+12
2.592927e+04, 6.565833e+12
2.595520e+04, 6.303465e+12
2.598116e+04, 6.252226e+12
2.600714e+04, 6.561014e+12
2.603315e+04, 6.551151e+12
2.605918e+04, 6.464555e+12
2.608524e+04, 6.108708e+12
2.611132e+04, 6.767502e+12
2.613744e+04, 6.412962e+12
2.616357e+04, 6.531418e+12
2.618974e+04, 6.114948e+12
2.621593e+04, 6.187788e+12
2.624214e+04, 6.300508e+12
2.626838e+04, 6.230438e+12
2.629465e+04, 6.272044e+12
2.632095e+04, 6.353726e+12
2.634727e+04, 6.076127e+12
2.637362e+04, 6.308886e+12
2.639999e+04, 6.139473e+12
2.642639e+04, 6.183352e+12
2.645282e+04, 6.131822e+12
2.647927e+04, 6.213692e+12
2.650575e+04, 6.179554e+12
2.653225e+04, 6.242738e+12
2.655879e+04, 6.003612e+12
2.658534e+04, 6.370743e+12
2.661193e+04, 6.130215e+12
2.663854e+04, 6.145291e+12
2.666518e+04, 6.164817e+12
2.669185e+04, 6.105243e+12
2.671854e+04, 6.170030e+12
2.674526e+04, 6.137480e+12
2.677200e+04, 5.709932e+12
2.679877e+04, 6.167438e+12
2.682557e+04, 5.960039e+12
2.685240e+04, 5.867118e+12
2.687925e+04, 6.109769e+12
2.690613e+04, 6.128060e+12
2.693303e+04, 5.697405e+12
2.695997e+04, 5.587872e+12
2.698693e+04, 5.958716e+12
2.701391e+04, 5.966784e+12
2.704093e+04, 5.614750e+12
2.706797e+04, 5.794676e+12
2.709504e+04, 5.841665e+12
2.712213e+04, 5.483880e+12
2.714925e+04, 5.753959e+12
2.717640e+04, 5.561110e+12
2.720358e+04, 5.713367e+12
2.723078e+04, 5.536016e+12
2.725801e+04, 5.560548e+12
2.728527e+04, 5.280171e+12
2.731256e+04, 5.736667e+12
2.733987e+04, 5.725084e+12
2.736721e+04, 5.192804e+12
2.739458e+04, 5.163164e+12
2.742197e+04, 5.590077e+12
2.744939e+04, 5.446198e+12
2.747684e+04, 5.458211e+12
2.750432e+04, 5.259545e+12
2.753182e+04, 5.369691e+12
2.755936e+04, 5.258660e+12
2.758692e+04, 5.394720e+12
2.761450e+04, 5.379214e+12
2.764212e+04, 5.310236e+12
2.766976e+04, 4.942079e+12
2.769743e+04, 5.150725e+12
2.772513e+04, 5.246633e+12
2.775285e+04, 5.396190e+12
2.778060e+04, 5.152011e+12
2.780839e+04, 5.191628e+12
2.783619e+04, 5.232105e+12
2.786403e+04, 4.872972e+12
2.789189e+04, 4.963159e+12
2.791979e+04, 4.983446e+12
2.794771e+04, 5.233737e+12
2.797565e+04, 5.063326e+12
2.800363e+04, 5.017329e+12
2.803163e+04, 4.675732e+12
2.805966e+04, 4.722718e+12
2.808772e+04, 4.995567e+12
2.811581e+04, 5.045856e+12
2.814393e+04, 4.846726e+12
2.817207e+04, 4.826075e+12
2.820024e+04, 4.519816e+12
2.822844e+04, 4.836375e+12
2.825667e+04, 4.822228e+12
2.828493e+04, 4.913248e+12
2.831321e+04, 4.904229e+12
2.834153e+04, 4.744836e+12
2.836987e+04, 4.571606e+12
2.839824e+04, 4.845480e+12
2.842664e+04, 4.730077e+12
2.845506e+04, 4.798547e+12
2.848352e+04, 4.755469e+12
2.851200e+04, 4.627170e+12
2.854051e+04, 4.389938e+12
2.856905e+04, 4.552269e+12
2.859762e+04, 4.984652e+12
2.862622e+04, 4.717733e+12
2.865485e+04, 4.659021e+12
2.868350e+04, 4.538069e+12
2.871219e+04, 4.465839e+12
2.874090e+04, 4.382623e+12
2.876964e+04, 4.808782e+12
2.879841e+04, 4.711159e+12
2.882721e+04, 4.671857e+12
2.885603e+04, 4.443755e+12
2.888489e+04, 4.412951e+12
2.891377e+04, 4.377907e+12
2.894269e+04, 4.752621e+12
2.897163e+04, 4.717920e+12
2.900060e+04, 4.263467e+12
2.902960e+04, 4.413229e+12
2.905863e+04, 4.529409e+12
2.908769e+04, 3.987142e+12
2.911678e+04, 4.491844e+12
2.914590e+04, 4.565441e+12
2.917504e+04, 4.430090e+12
2.920422e+04, 4.270594e+12
2.923342e+04, 4.161405e+12
2.926265e+04, 4.326983e+12
2.929192e+04, 4.029783e+12
2.932121e+04, 4.486084e+12
2.935053e+04, 4.320231e+12
2.937988e+04, 4.304413e+12
2.940926e+04, 4.105328e+12
2.943867e+04, 4.085983e+12
2.946811e+04, 4.116808e+12
2.949758e+04, 4.109264e+12
2.952707e+04, 4.271546e+12
2.955660e+04, 4.099376e+12
2.958616e+04, 4.280170e+12
2.961574e+04, 4.048576e+12
2.964536e+04, 4.146476e+12
2.967501e+04, 3.935265e+12
2.970468e+04, 4.029093e+12
2.973439e+04, 4.139286e+12
2.976412e+04, 4.246751e+12
2.979388e+04, 4.144505e+12
2.982368e+04, 3.997271e+12
2.985350e+04, 4.085836e+12
2.988335e+04, 3.726655e+12
2.991324e+04, 4.021700e+12
2.994315e+04, 4.153867e+12
2.997309e+04, 4.063681e+12
3.000307e+04, 4.015799e+12
3.003307e+04, 3.900724e+12
3.006310e+04, 3.886345e+12
3.009317e+04, 3.575637e+12
3.012326e+04, 3.914810e+12
3.015338e+04, 4.188450e+12
3.018354e+04, 4.065758e+12
3.021372e+04, 3.845224e+12
3.024393e+04, 3.871024e+12
3.027418e+04, 3.820441e+12
3.030445e+04, 3.756482e+12
3.033476e+04, 3.991145e+12
3.036509e+04, 3.932240e+12
3.039546e+04, 3.928284e+12
3.042585e+04, 3.742079e+12
3.045628e+04, 3.708048e+12
3.048673e+04, 3.586615e+12
3.051722e+04, 3.648863e+12
3.054774e+04, 4.023154e+12
3.057829e+04, 3.826941e+12
3.060886e+04, 3.851706e+12
3.063947e+04, 3.799550e+12
3.067011e+04, 3.774682e+12
3.070078e+04, 3.603130e+12
3.073148e+04, 3.566664e+12
3.076221e+04, 3.748435e+12
3.079298e+04, 3.859014e+12
3.082377e+04, 3.714271e+12
3.085459e+04, 3.615587e+12
3.088545e+04, 3.593768e+12
3.091633e+04, 3.554488e+12
3.094725e+04, 3.587578e+12
3.097820e+04, 3.598588e+12
3.100918e+04, 3.818932e+12
3.104018e+04, 3.741355e+12
3.107122e+04, 3.587409e+12
3.110230e+04, 3.589417e+12
3.113340e+04, 3.511642e+12
3.116453e+04, 3.579741e+12
3.119570e+04, 3.579676e+12
3.122689e+04, 3.669662e+12
3.125812e+04, 3.690517e+12
3.128938e+04, 3.455594e+12
3.132067e+04, 3.334778e+12
3.135199e+04, 3.476390e+12
3.138334e+04, 3.579581e+12
3.141472e+04, 3.611168e+12
3.144614e+04, 3.467394e+12
3.147758e+04, 3.541931e+12
3.150906e+04, 3.571815e+12
3.154057e+04, 3.422678e+12
3.157211e+04, 3.330069e+12
3.160368e+04, 3.560716e+12
3.163529e+04, 3.579354e+12
3.166692e+04, 3.421014e+12
3.169859e+04, 3.505287e+12
3.173029e+04, 3.429606e+12
3.176202e+04, 3.421847e+12
3.179378e+04, 3.251162e+12
3.182557e+04, 3.407193e+12
3.185740e+04, 3.420850e+12
3.188926e+04, 3.398611e+12
3.192115e+04, 3.436700e+12
3.195307e+04, 3.378616e+12
3.198502e+04, 3.319677e+12
3.201700e+04, 3.249624e+12
3.204902e+04, 3.368996e+12
3.208107e+04, 3.490683e+12
3.211315e+04, 3.422975e+12
3.214526e+04, 3.408595e+12
3.217741e+04, 3.298476e+12
3.220959e+04, 3.332004e+12
3.224180e+04, 3.329702e+12
3.227404e+04, 3.216210e+12
3.230631e+04, 3.385919e+12
3.233862e+04, 3.301332e+12
3.237096e+04, 3.270164e+12
3.240333e+04, 3.256479e+12
3.243573e+04, 3.200041e+12
3.246817e+04, 3.254908e+12
3.250064e+04, 3.265053e+12
3.253314e+04, 3.287358e+12
3.256567e+04, 3.354405e+12
3.259824e+04, 3.342032e+12
3.263083e+04, 3.291893e+12
3.266346e+04, 3.240358e+12
3.269613e+04, 3.180233e+12
3.272882e+04, 3.297984e+12
3.276155e+04, 3.167699e+12
3.279431e+04, 3.196498e+12
3.282711e+04, 3.154886e+12
3.285994e+04, 3.112728e+12
3.289280e+04, 3.202303e+12
3.292569e+04, 3.113489e+12
3.295861e+04, 3.159285e+12
3.299157e+04, 3.175749e+12
3.302456e+04, 3.245176e+12
3.305759e+04, 3.194674e+12
3.309065e+04, 3.146542e+12
3.312374e+04, 3.183763e+12
3.315686e+04, 3.099747e+12
3.319002e+04, 3.111724e+12
3.322321e+04, 3.162428e+12
3.325643e+04, 3.139723e+12
3.328969e+04, 3.237051e+12
3.332298e+04, 3.171741e+12
3.335630e+04, 3.088553e+12
3.338966e+04, 2.920159e+12
3.342305e+04, 3.050610e+12
3.345647e+04, 3.080037e+12
3.348993e+04, 3.089129e+12
3.352342e+04, 3.123573e+12
3.355694e+04, 3.010580e+12
3.359050e+04, 3.087314e+12
3.362409e+04, 3.073988e+12
3.365771e+04, 3.056542e+12
3.369137e+04, 3.088827e+12
3.372506e+04, 3.052477e+12
3.375878e+04, 3.027480e+12
3.379254e+04, 3.030558e+12
3.382634e+04, 3.036122e+12
3.386016e+04, 3.035617e+12
3.389402e+04, 3.070267e+12
3.392792e+04, 2.949673e+12
3.396184e+04, 2.824661e+12
3.399581e+04, 2.965965e+12
3.402980e+04, 2.982949e+12
3.406383e+04, 2.992417e+12
3.409790e+04, 2.932339e+12
3.413199e+04, 2.931917e+12
3.416613e+04, 2.928407e+12
3.420029e+04, 2.956350e+12
3.423449e+04, 2.989052e+12
3.426873e+04, 2.983457e+12
3.430300e+04, 2.958255e+12
3.433730e+04, 2.968659e+12
3.437164e+04, 2.948141e+12
3.440601e+04, 2.943370e+12
3.444041e+04, 2.869911e+12
3.447485e+04, 2.897620e+12
3.450933e+04, 2.866895e+12
3.454384e+04, 2.847127e+12
3.457838e+04, 2.738319e+12
3.461296e+04, 2.842367e+12
3.464757e+04, 2.864062e+12
3.468222e+04, 2.931903e+12
3.471690e+04, 2.918145e+12
3.475162e+04, 2.877345e+12
3.478637e+04, 2.898996e+12
3.482116e+04, 2.822117e+12
3.485598e+04, 2.841878e+12
3.489083e+04, 2.840810e+12
3.492573e+04, 2.785685e+12
3.496065e+04, 2.880751e+12
3.499561e+04, 2.786519e+12
3.503061e+04, 2.858455e+12
3.506564e+04, 2.800657e+12
3.510070e+04, 2.746203e+12
3.513580e+04, 2.767795e+12
3.517094e+04, 2.765046e+12
3.520611e+04, 2.590804e+12
3.524132e+04, 2.718693e+12
3.527656e+04, 2.748733e+12
3.531184e+04, 2.820238e+12
3.534715e+04, 2.788286e+12
3.538249e+04, 2.709367e+12
3.541788e+04, 2.774972e+12
3.545329e+04, 2.712570e+12
3.548875e+04, 2.744346e+12
3.552424e+04, 2.700907e+12
3.555976e+04, 2.716779e+12
3.559532e+04, 2.708072e+12
3.563092e+04, 2.727166e+12
3.566655e+04, 2.719662e+12
3.570221e+04, 2.569372e+12
3.573792e+04, 2.616791e+12
3.577365e+04, 2.615312e+12
3.580943e+04, 2.698702e+12
3.584524e+04, 2.672591e+12
3.588108e+04, 2.549767e+12
3.591696e+04, 2.601729e+12
3.595288e+04, 2.664653e+12
3.598883e+04, 2.612583e+12
3.602482e+04, 2.597316e+12
3.606085e+04, 2.666924e+12
3.609691e+04, 2.649666e+12
3.613300e+04, 2.609490e+12
3.616914e+04, 2.601305e+12
3.620531e+04, 2.605843e+12
3.624151e+04, 2.584584e+12
3.627775e+04, 2.621283e+12
3.631403e+04, 2.560701e+12
3.635035e+04, 2.479513e+12
3.638670e+04, 2.450983e+12
3.642308e+04, 2.579974e+12
3.645951e+04, 2.571444e+12
3.649596e+04, 2.538527e+12
3.653246e+04, 2.517165e+12
3.656899e+04, 2.485796e+12
3.660556e+04, 2.433865e+12
3.664217e+04, 2.464162e+12
3.667881e+04, 2.542643e+12
3.671549e+04, 2.530546e+12
3.675220e+04, 2.499670e+12
3.678896e+04, 2.466842e+12
3.682575e+04, 2.506367e+12
3.686257e+04, 2.492250e+12
3.689943e+04, 2.479783e+12
3.693633e+04, 2.447089e+12
3.697327e+04, 2.389214e+12
3.701024e+04, 2.392544e+12
3.704725e+04, 2.403737e+12
3.708430e+04, 2.327968e+12
3.712138e+04, 2.458227e+12
3.715851e+04, 2.421272e+12
3.719566e+04, 2.428196e+12
3.723286e+04, 2.425966e+12
3.727009e+04, 2.432784e+12
3.730736e+04, 2.420310e+12
3.734467e+04, 2.260707e+12
3.738202e+04, 2.342992e+12
3.741940e+04, 2.379999e+12
3.745682e+04, 2.382059e+12
3.749427e+04, 2.403257e+12
3.753177e+04, 2.394528e+12
3.756930e+04, 2.367325e+12
3.760687e+04, 2.363125e+12
3.764448e+04, 2.298068e+12
3.768212e+04, 2.313256e+12
3.771980e+04, 2.286987e+12
3.775752e+04, 2.294659e+12
3.779528e+04, 2.284643e+12
3.783307e+04, 2.305343e+12
3.787091e+04, 2.329121e+12
3.790878e+04, 2.320592e+12
3.794669e+04, 2.315161e+12
3.798463e+04, 2.297775e+12
3.802262e+04, 2.317882e+12
3.806064e+04, 2.258227e+12
3.809870e+04, 2.210554e+12
3.813680e+04, 2.180749e+12
3.817494e+04, 2.274473e+12
3.821311e+04, 2.269152e+12
3.825133e+04, 2.252705e+12
3.828958e+04, 2.232171e+12
3.832787e+04, 2.206351e+12
3.836619e+04, 2.170005e+12
3.840456e+04, 2.184374e+12
3.844297e+04, 2.234234e+12
3.848141e+04, 2.168002e+12
3.851989e+04, 2.161914e+12
3.855841e+04, 2.166314e+12
3.859697e+04, 2.195871e+12
3.863556e+04, 2.177846e+12
3.867420e+04, 2.146886e+12
3.871287e+04, 2.166087e+12
3.875159e+04, 2.161289e+12
3.879034e+04, 2.154440e+12
3.882913e+04, 2.178892e+12
3.886796e+04, 2.126105e+12
3.890683e+04, 2.112737e+12
3.894573e+04, 2.040752e+12
3.898468e+04, 2.087438e+12
3.902366e+04, 2.123096e+12
3.906269e+04, 2.090153e+12
3.910175e+04, 2.040472e+12
3.914085e+04, 2.051851e+12
3.917999e+04, 2.097489e+12
3.921917e+04, 2.083563e+12
3.925839e+04, 2.084977e+12
3.929765e+04, 2.057721e+12
3.933695e+04, 2.018984e+12
3.937628e+04, 2.020506e+12
3.941566e+04, 2.046173e+12
3.945508e+04, 2.044930e+12
3.949453e+04, 2.029203e+12
3.953403e+04, 2.006422e+12
3.957356e+04, 2.013857e+12
3.961313e+04, 2.020101e+12
3.965275e+04, 1.992624e+12
3.969240e+04, 1.990283e+12
3.973209e+04, 1.979354e+12
3.977182e+04, 1.955822e+12
3.981160e+04, 1.870665e+12
3.985141e+04, 1.890439e+12
3.989126e+04, 1.919379e+12
3.993115e+04, 1.928179e+12
3.997108e+04, 1.932473e+12
4.001105e+04, 1.926855e+12
4.005106e+04, 1.914250e+12
4.009111e+04, 1.905199e+12
4.013121e+04, 1.904523e+12
4.017134e+04, 1.861649e+12
4.021151e+04, 1.819704e+12
4.025172e+04, 1.877217e+12
4.029197e+04, 1.869226e+12
4.033226e+04, 1.874167e+12
4.037260e+04, 1.873622e+12
4.041297e+04, 1.826128e+12
4.045338e+04, 1.762572e+12
4.049383e+04, 1.806479e+12
4.053433e+04, 1.816255e+12
4.057486e+04, 1.811829e+12
4.061544e+04, 1.775013e+12
4.065605e+04, 1.803931e+12
4.069671e+04, 1.756257e+12
4.073741e+04, 1.734154e+12
4.077814e+04, 1.746871e+12
4.081892e+04, 1.752404e+12
4.085974e+04, 1.712121e+12
4.090060e+04, 1.724639e+12
4.094150e+04, 1.737371e+12
4.098244e+04, 1.731804e+12
4.102342e+04, 1.738517e+12
4.106445e+04, 1.732834e+12
4.110551e+04, 1.662520e+12
4.114662e+04, 1.708283e+12
4.118776e+04, 1.691237e+12
4.122895e+04, 1.691602e+12
4.127018e+04, 1.686651e+12
4.131145e+04, 1.654247e+12
4.135276e+04, 1.689779e+12
4.139412e+04, 1.641521e+12
4.143551e+04, 1.667831e+12
4.147695e+04, 1.670446e+12
4.151842e+04, 1.673789e+12
4.155994e+04, 1.627543e+12
4.160150e+04, 1.602981e+12
4.164310e+04, 1.610588e+12
4.168475e+04, 1.564340e+12
4.172643e+04, 1.597826e+12
4.176816e+04, 1.618469e+12
4.180992e+04, 1.619846e+12
4.185173e+04, 1.572534e+12
4.189359e+04, 1.601360e+12
4.193548e+04, 1.594158e+12
4.197742e+04, 1.585614e+12
4.201939e+04, 1.562061e+12
4.206141e+04, 1.562575e+12
4.210347e+04, 1.554325e+12
4.214558e+04, 1.535880e+12
4.218772e+04, 1.542222e+12
4.222991e+04, 1.536620e+12
4.227214e+04, 1.552490e+12
4.231441e+04, 1.554298e+12
4.235673e+04, 1.552524e+12
4.239908e+04, 1.531467e+12
4.244148e+04, 1.521279e+12
4.248392e+04, 1.500425e+12
4.252641e+04, 1.464828e+12
4.256893e+04, 1.500917e+12
4.261150e+04, 1.490917e+12
4.265411e+04, 1.486790e+12
4.269677e+04, 1.467512e+12
4.273947e+04, 1.447229e+12
4.278221e+04, 1.498758e+12
4.282499e+04, 1.469166e+12
4.286781e+04, 1.483042e+12
4.291068e+04, 1.462096e+12
4.295359e+04, 1.365077e+12
4.299654e+04, 1.387553e+12
4.303954e+04, 1.362602e+12
4.308258e+04, 1.392238e+12
4.312566e+04, 1.394326e+12
4.316879e+04, 1.386487e+12
4.321196e+04, 1.394524e+12
4.325517e+04, 1.376103e+12
4.329842e+04, 1.372229e+12
4.334172e+04, 1.386797e+12
4.338506e+04, 1.349461e+12
4.342845e+04, 1.347953e+12
4.347188e+04, 1.354715e+12
4.351535e+04, 1.288657e+12
4.355887e+04, 1.294417e+12
4.360242e+04, 1.322437e+12
4.364603e+04, 1.315672e+12
4.368967e+04, 1.280891e+12
4.373336e+04, 1.294351e+12
4.377710e+04, 1.277668e+12
4.382087e+04, 1.275717e+12
4.386469e+04, 1.282812e+12
4.390856e+04, 1.311404e+12
4.395247e+04, 1.261439e+12
4.399642e+04, 1.270651e+12
4.404042e+04, 1.245754e+12
4.408446e+04, 1.205884e+12
4.412854e+04, 1.220214e+12
4.417267e+04, 1.222545e+12
4.421684e+04, 1.224081e+12
4.426106e+04, 1.211366e+12
4.430532e+04, 1.213271e+12
4.434963e+04, 1.173286e+12
4.439398e+04, 1.182369e+12
4.443837e+04, 1.216022e+12
4.448281e+04, 1.192063e+12
4.452729e+04, 1.210847e+12
4.457182e+04, 1.170373e+12
4.461639e+04, 1.195387e+12
4.466101e+04, 1.136378e+12
4.470567e+04, 1.147933e+12
4.475037e+04, 1.184516e+12
4.479512e+04, 1.120129e+12
4.483992e+04, 1.168949e+12
4.488476e+04, 1.144903e+12
4.492964e+04, 1.139822e+12
4.497457e+04, 1.144536e+12
4.501955e+04, 1.138155e+12
4.506457e+04, 1.111629e+12
4.510963e+04, 1.122840e+12
4.515474e+04, 1.130330e+12
4.519990e+04, 1.093445e+12
4.524510e+04, 1.114907e+12
4.529034e+04, 1.109853e+12
4.533563e+04, 1.068900e+12
4.538097e+04, 1.100148e+12
4.542635e+04, 1.107627e+12
4.547177e+04, 1.082837e+12
4.551725e+04, 1.063139e+12
4.556276e+04, 1.092221e+12
4.560833e+04, 1.075044e+12
4.565393e+04, 1.059763e+12
4.569959e+04, 1.065868e+12
4.574529e+04, 1.053965e+12
4.579103e+04, 1.073370e+12
4.583682e+04, 1.055060e+12
4.588266e+04, 1.023014e+12
4.592854e+04, 1.061305e+12
4.597447e+04, 1.032878e+12
4.602045e+04, 1.036235e+12
4.606647e+04, 1.047148e+12
4.611253e+04, 1.045708e+12
4.615865e+04, 9.915697e+11
4.620480e+04, 1.045272e+12
4.625101e+04, 9.845493e+11
4.629726e+04, 1.049642e+12
4.634356e+04, 1.026867e+12
4.638990e+04, 9.911961e+11
4.643629e+04, 1.023012e+12
4.648273e+04, 1.002901e+12
4.652921e+04, 1.000988e+12
4.657574e+04, 1.019291e+12
4.662231e+04, 9.841851e+11
4.666894e+04, 9.858079e+11
4.671561e+04, 9.987219e+11
4.676232e+04, 9.960020e+11
4.680908e+04, 9.627714e+11
4.685589e+04, 9.974754e+11
4.690275e+04, 9.619994e+11
4.694965e+04, 1.002551e+12
4.699660e+04, 9.599476e+11
4.704360e+04, 9.747169e+11
4.709064e+04, 9.496915e+11
4.713773e+04, 9.721833e+11
4.718487e+04, 9.426951e+11
4.723205e+04, 9.800575e+11
4.727929e+04, 9.363027e+11
4.732657e+04, 9.428293e+11
4.737389e+04, 9.446070e+11
4.742127e+04, 9.556826e+11
4.746869e+04, 9.418105e+11
4.751616e+04, 9.344978e+11
4.756367e+04, 9.283414e+11
4.761124e+04, 9.232464e+11
4.765885e+04, 9.098562e+11
4.770651e+04, 9.377759e+11
4.775421e+04, 9.077502e+11
4.780197e+04, 9.065390e+11
4.784977e+04, 8.880332e+11
4.789762e+04, 9.410564e+11
4.794552e+04, 8.718062e+11
4.799346e+04, 9.238286e+11
4.804146e+04, 8.898437e+11
4.808950e+04, 9.040693e+11
4.813759e+04, 8.587867e+11
4.818572e+04, 9.031420e+11
4.823391e+04, 8.954853e+11
4.828214e+04, 9.109210e+11
4.833043e+04, 8.642093e+11
4.837876e+04, 8.779765e+11
4.842713e+04, 8.658759e+11
4.847556e+04, 8.926220e+11
4.852404e+04, 8.590495e+11
4.857256e+04, 8.741372e+11
4.862113e+04, 8.681602e+11
4.866976e+04, 8.601877e+11
4.871842e+04, 8.379589e+11
4.876714e+04, 8.348653e+11
4.881591e+04, 8.770933e+11
4.886473e+04, 8.411574e+11
4.891359e+04, 8.564586e+11
4.896250e+04, 8.097340e+11
4.901147e+04, 8.625667e+11
4.906048e+04, 8.352062e+11
4.910954e+04, 8.324444e+11
4.915865e+04, 8.355834e+11
4.920781e+04, 8.389197e+11
4.925702e+04, 8.053521e+11
4.930627e+04, 8.194394e+11
4.935558e+04, 7.959763e+11
4.940493e+04, 8.410235e+11
4.945434e+04, 8.149562e+11
4.950379e+04, 7.934071e+11
4.955330e+04, 7.878548e+11
4.960285e+04, 7.913761e+11
4.965245e+04, 8.086602e+11
4.970211e+04, 7.648593e+11
4.975181e+04, 8.217731e+11
4.980156e+04, 7.834010e+11
4.985136e+04, 8.085112e+11
4.990121e+04, 7.664533e+11
4.995111e+04, 7.789948e+11
5.000106e+04, 7.587021e+11
5.005107e+04, 7.860559e+11
5.010112e+04, 7.616611e+11
5.015122e+04, 7.658794e+11
5.020137e+04, 7.348225e+11
5.025157e+04, 7.457447e+11
5.030182e+04, 7.480389e+11
5.035212e+04, 7.639888e+11
5.040248e+04, 7.466319e+11
5.045288e+04, 7.307902e+11
5.050333e+04, 7.872094e+11
5.055383e+04, 7.299208e+11
5.060439e+04, 7.369922e+11
5.065499e+04, 7.216814e+11
5.070565e+04, 7.539336e+11
5.075635e+04, 7.398592e+11
5.080711e+04, 7.047643e+11
5.085792e+04, 7.355946e+11
5.090878e+04, 7.121809e+11
5.095968e+04, 7.257856e+11
5.101064e+04, 7.372908e+11
5.106165e+04, 7.048199e+11
5.111272e+04, 7.112057e+11
5.116383e+04, 7.200436e+11
5.121499e+04, 7.003057e+11
5.126621e+04, 7.015234e+11
5.131747e+04, 6.823374e+11
5.136879e+04, 7.238252e+11
5.142016e+04, 6.969870e+11
5.147158e+04, 6.634407e+11
5.152305e+04, 7.252927e+11
5.157457e+04, 6.845987e+11
5.162615e+04, 6.767830e+11
5.167778e+04, 6.726474e+11
5.172945e+04, 6.760542e+11
5.178118e+04, 6.902546e+11
5.183296e+04, 6.794615e+11
5.188480e+04, 6.865329e+11
5.193668e+04, 6.752085e+11
5.198862e+04, 6.472184e+11
5.204061e+04, 6.640057e+11
5.209265e+04, 6.856643e+11
5.214474e+04, 6.664422e+11
5.219688e+04, 6.611444e+11
5.224908e+04, 6.527704e+11
5.230133e+04, 6.522008e+11
5.235363e+04, 6.624252e+11
5.240599e+04, 6.304387e+11
5.245839e+04, 6.493802e+11
5.251085e+04, 6.451958e+11
5.256336e+04, 6.387548e+11
5.261592e+04, 6.698466e+11
5.266854e+04, 6.358202e+11
5.272121e+04, 6.310627e+11
5.277393e+04, 6.294899e+11
5.282670e+04, 6.153572e+11
5.287953e+04, 6.403572e+11
5.293241e+04, 6.225217e+11
5.298534e+04, 6.192965e+11
5.303833e+04, 6.413596e+11
5.309137e+04, 6.003067e+11
5.314446e+04, 6.313989e+11
5.319760e+04, 5.969934e+11
5.325080e+04, 6.156490e+11
5.330405e+04, 6.196414e+11
5.335735e+04, 6.214197e+11
5.341071e+04, 6.010039e+11
5.346412e+04, 5.952274e+11
5.351759e+04, 5.937074e+11
5.357110e+04, 6.138442e+11
5.362468e+04, 5.994248e+11
5.367830e+04, 5.925306e+11
5.373198e+04, 6.050000e+11
5.378571e+04, 5.883929e+11
5.383950e+04, 5.999227e+11
5.389334e+04, 5.819229e+11
5.394723e+04, 5.880155e+11
5.400118e+04, 5.977234e+11
5.405518e+04, 5.782830e+11
5.410923e+04, 5.644932e+11
5.416334e+04, 5.735698e+11
5.421751e+04, 5.674422e+11
5.427172e+04, 5.685691e+11
5.432599e+04, 5.689941e+11
5.438032e+04, 5.593033e+11
5.443470e+04, 5.800622e+11
5.448914e+04, 5.714572e+11
5.454362e+04, 5.555255e+11
5.459817e+04, 5.693189e+11
5.465277e+04, 5.536621e+11
5.470742e+04, 5.570876e+11
5.476213e+04, 5.546073e+11
5.481689e+04, 5.582709e+11
5.487171e+04, 5.587647e+11
5.492658e+04, 5.450334e+11
5.498150e+04, 5.558909e+11
5.503649e+04, 5.577145e+11
5.509152e+04, 5.371850e+11
5.514661e+04, 5.461311e+11
5.520176e+04, 5.453164e+11
5.525696e+04, 5.230553e+11
5.531222e+04, 5.250132e+11
5.536753e+04, 5.539287e+11
5.542290e+04, 5.314737e+11
5.547832e+04, 5.207260e+11
5.553380e+04, 5.367758e+11
5.558933e+04, 5.253941e+11
5.564492e+04, 5.201709e+11
5.570057e+04, 5.277515e+11
5.575627e+04, 5.238741e+11
5.581202e+04, 5.106918e+11
5.586784e+04, 5.156934e+11
5.592370e+04, 5.252161e+11
5.597963e+04, 5.298428e+11
5.603561e+04, 5.132087e+11
5.609164e+04, 5.149520e+11
5.614774e+04, 5.088308e+11
5.620388e+04, 4.999286e+11
5.626009e+04, 5.120823e+11
5.631635e+04, 5.018832e+11
5.637266e+04, 5.119932e+11
5.642904e+04, 5.002714e+11
5.648546e+04, 5.006528e+11
5.654195e+04, 4.935246e+11
5.659849e+04, 4.994205e+11
5.665509e+04, 4.892401e+11
5.671175e+04, 5.075802e+11
5.676846e+04, 4.837356e+11
5.682523e+04, 4.852696e+11
5.688205e+04, 4.896241e+11
5.693893e+04, 4.774238e+11
5.699587e+04, 4.896786e+11
5.705287e+04, 4.987499e+11
5.710992e+04, 4.758658e+11
5.716703e+04, 4.688580e+11
5.722420e+04, 4.762850e+11
5.728142e+04, 4.744677e+11
5.733870e+04, 4.584636e+11
5.739604e+04, 4.742829e+11
5.745344e+04, 4.816914e+11
5.751089e+04, 4.783511e+11
5.756840e+04, 4.718925e+11
5.762597e+04, 4.660421e+11
5.768360e+04, 4.691296e+11
5.774128e+04, 4.676100e+11
5.779902e+04, 4.557544e+11
5.785682e+04, 4.649900e+11
5.791468e+04, 4.649176e+11
5.797259e+04, 4.477401e+11
5.803056e+04, 4.700623e+11
5.808860e+04, 4.674857e+11
5.814668e+04, 4.500914e+11
5.820483e+04, 4.482933e+11
5.826304e+04, 4.559585e+11
5.832130e+04, 4.403205e+11
5.837962e+04, 4.446862e+11
5.843800e+04, 4.476087e+11
5.849644e+04, 4.440076e+11
5.855493e+04, 4.395545e+11
5.861349e+04, 4.549498e+11
5.867210e+04, 4.524232e+11
5.873077e+04, 4.339574e+11
5.878951e+04, 4.398372e+11
5.884829e+04, 4.369704e+11
5.890714e+04, 4.525554e+11
5.896605e+04, 4.290099e+11
5.902502e+04, 4.203917e+11
5.908404e+04, 4.350269e+11
5.914313e+04, 4.350840e+11
5.920227e+04, 4.314263e+11
5.926147e+04, 4.388174e+11
5.932073e+04, 4.293717e+11
5.938005e+04, 4.233799e+11
5.943943e+04, 4.238358e+11
5.949887e+04, 4.197653e+11
5.955837e+04, 4.304545e+11
5.961793e+04, 4.185909e+11
5.967755e+04, 4.090843e+11
5.973723e+04, 4.245486e+11
5.979696e+04, 4.169247e+11
5.985676e+04, 4.139573e+11
5.991662e+04, 4.110565e+11
5.997653e+04, 4.170776e+11
6.003651e+04, 4.163227e+11
6.009655e+04, 4.207285e+11
6.015664e+04, 4.091568e+11
6.021680e+04, 4.034177e+11
6.027702e+04, 4.142438e+11
6.033729e+04, 3.969298e+11
6.039763e+04, 3.957149e+11
6.045803e+04, 3.956510e+11
6.051849e+04, 3.973181e+11
6.057900e+04, 4.012644e+11
6.063958e+04, 4.036690e+11
6.070022e+04, 4.038725e+11
6.076092e+04, 3.991116e+11
6.082168e+04, 4.013973e+11
6.088251e+04, 3.964732e+11
6.094339e+04, 4.003841e+11
6.100433e+04, 3.848378e+11
6.106534e+04, 3.916624e+11
6.112640e+04, 3.774415e+11
6.118753e+04, 3.852989e+11
6.124872e+04, 3.897103e+11
6.130996e+04, 3.954209e+11
6.137127e+04, 3.943214e+11
6.143265e+04, 3.808405e+11
6.149408e+04, 3.847013e+11
6.155557e+04, 3.835472e+11
6.161713e+04, 3.800387e+11
6.167874e+04, 3.829881e+11
6.174042e+04, 3.683105e+11
6.180216e+04, 3.803102e+11
6.186397e+04, 3.726958e+11
6.192583e+04, 3.758176e+11
6.198776e+04, 3.724160e+11
6.204974e+04, 3.730195e+11
6.211179e+04, 3.760676e+11
6.217390e+04, 3.661345e+11
6.223608e+04, 3.717501e+11
6.229831e+04, 3.759329e+11
6.236061e+04, 3.682290e+11
6.242297e+04, 3.561235e+11
6.248540e+04, 3.597800e+11
6.254788e+04, 3.674427e+11
6.261043e+04, 3.570925e+11
6.267304e+04, 3.606130e+11
6.273571e+04, 3.549439e+11
6.279845e+04, 3.550612e+11
6.286125e+04, 3.657507e+11
6.292411e+04, 3.495337e+11
6.298703e+04, 3.506570e+11
6.305002e+04, 3.584470e+11
6.311307e+04, 3.524546e+11
6.317618e+04, 3.461331e+11
6.323936e+04, 3.480476e+11
6.330260e+04, 3.500755e+11
6.336590e+04, 3.434336e+11
6.342927e+04, 3.420121e+11
6.349270e+04, 3.420856e+11
6.355619e+04, 3.321470e+11
6.361975e+04, 3.422017e+11
6.368337e+04, 3.425717e+11
6.374705e+04, 3.387265e+11
6.381080e+04, 3.305998e+11
6.387461e+04, 3.258110e+11
6.393848e+04, 3.360092e+11
6.400242e+04, 3.360223e+11
6.406642e+04, 3.218328e+11
6.413049e+04, 3.198069e+11
6.419462e+04, 3.207057e+11
6.425881e+04, 3.304900e+11
6.432307e+04, 3.170885e+11
6.438740e+04, 3.177078e+11
6.445178e+04, 3.206060e+11
6.451623e+04, 3.093271e+11
6.458075e+04, 3.108948e+11
6.464533e+04, 3.144224e+11
6.470998e+04, 2.915689e+11
6.477469e+04, 2.943333e+11
6.483946e+04, 2.956189e+11
6.490430e+04, 3.047522e+11
6.496921e+04, 2.947967e+11
6.503417e+04, 2.898890e+11
6.509921e+04, 3.054218e+11
6.516431e+04, 2.892489e+11
6.522947e+04, 2.949249e+11
6.529470e+04, 2.868888e+11
6.536000e+04, 2.897971e+11
6.542536e+04, 2.839352e+11
6.549078e+04, 2.856933e+11
6.555627e+04, 2.833719e+11
6.562183e+04, 2.775794e+11
6.568745e+04, 2.740721e+11
6.575314e+04, 2.763705e+11
6.581889e+04, 2.836459e+11
6.588471e+04, 2.786276e+11
6.595059e+04, 2.583102e+11
6.601655e+04, 2.693528e+11
6.608256e+04, 2.788302e+11
6.614864e+04, 2.698310e+11
6.621479e+04, 2.583035e+11
6.628101e+04, 2.615670e+11
6.634729e+04, 2.600550e+11
6.641364e+04, 2.596265e+11
6.648005e+04, 2.690876e+11
6.654653e+04, 2.584638e+11
6.661308e+04, 2.615284e+11
6.667969e+04, 2.601083e+11
6.674637e+04, 2.622807e+11
6.681312e+04, 2.522505e+11
6.687993e+04, 2.499429e+11
6.694681e+04, 2.537302e+11
6.701376e+04, 2.600409e+11
6.708077e+04, 2.598559e+11
6.714785e+04, 2.556647e+11
6.721500e+04, 2.547430e+11
6.728221e+04, 2.510915e+11
6.734949e+04, 2.547733e+11
6.741684e+04, 2.524141e+11
6.748426e+04, 2.444657e+11
6.755175e+04, 2.504240e+11
6.761930e+04, 2.464483e+11
6.768692e+04, 2.423096e+11
6.775460e+04, 2.437550e+11
6.782236e+04, 2.385477e+11
6.789018e+04, 2.406062e+11
6.795807e+04, 2.403859e+11
6.802603e+04, 2.467911e+11
6.809405e+04, 2.410631e+11
6.816215e+04, 2.309761e+11
6.823031e+04, 2.388924e+11
6.829854e+04, 2.361910e+11
6.836684e+04, 2.307994e+11
6.843521e+04, 2.437424e+11
6.850364e+04, 2.377166e+11
6.857215e+04, 2.294961e+11
6.864072e+04, 2.333615e+11
6.870936e+04, 2.310748e+11
6.877807e+04, 2.361614e+11
6.884685e+04, 2.275581e+11
6.891569e+04, 2.309038e+11
6.898461e+04, 2.327772e+11
6.905359e+04, 2.230718e+11
6.912265e+04, 2.296113e+11
6.919177e+04, 2.234700e+11
6.926096e+04, 2.243276e+11
6.933022e+04, 2.278376e+11
6.939955e+04, 2.239067e+11
6.946895e+04, 2.244633e+11
6.953842e+04, 2.210366e+11
6.960796e+04, 2.228969e+11
6.967757e+04, 2.180746e+11
6.974724e+04, 2.221441e+11
6.981699e+04, 2.175779e+11
6.988681e+04, 2.230711e+11
6.995670e+04, 2.251981e+11
7.002665e+04, 2.143528e+11
7.009668e+04, 2.110505e+11
7.016678e+04, 2.154044e+11
7.023694e+04, 2.127925e+11
7.030718e+04, 2.112153e+11
7.037749e+04, 2.215807e+11
7.044786e+04, 2.131246e+11
7.051831e+04, 2.084417e+11
7.058883e+04, 2.159777e+11
7.065942e+04, 2.135384e+11
7.073008e+04, 2.075298e+11
7.080081e+04, 2.070154e+11
7.087161e+04, 2.093007e+11
7.094248e+04, 2.054702e+11
7.101342e+04, 2.060083e+11
7.108444e+04, 2.038168e+11
7.115552e+04, 2.066456e+11
7.122668e+04, 2.023999e+11
7.129790e+04, 2.060753e+11
7.136920e+04, 2.026931e+11
7.144057e+04, 2.014736e+11
7.151201e+04, 2.000414e+11
7.158352e+04, 2.076823e+11
7.165511e+04, 2.051419e+11
7.172676e+04, 2.006437e+11
7.179849e+04, 1.999699e+11
7.187029e+04, 2.001578e+11
7.194216e+04, 1.984713e+11
7.201410e+04, 1.978163e+11
7.208611e+04, 1.959123e+11
7.215820e+04, 1.958561e+11
7.223036e+04, 1.947753e+11
7.230259e+04, 1.953030e+11
7.237489e+04, 1.936082e+11
7.244727e+04, 1.943880e+11
7.251971e+04, 1.950676e+11
7.259223e+04, 1.911878e+11
7.266482e+04, 1.949258e+11
7.273749e+04, 1.868973e+11
7.281023e+04, 1.916213e+11
7.288304e+04, 1.917282e+11
7.295592e+04, 1.859261e+11
7.302888e+04, 1.866235e+11
7.310191e+04, 1.894959e+11
7.317501e+04, 1.896231e+11
7.324818e+04, 1.874205e+11
7.332143e+04, 1.828141e+11
7.339475e+04, 1.827767e+11
7.346815e+04, 1.815901e+11
7.354161e+04, 1.833530e+11
7.361516e+04, 1.815647e+11
7.368877e+04, 1.823450e+11
7.376246e+04, 1.793903e+11
7.383622e+04, 1.812994e+11
7.391006e+04, 1.851980e+11
7.398397e+04, 1.823674e+11
7.405795e+04, 1.805878e+11
7.413201e+04, 1.777267e+11
7.420614e+04, 1.766693e+11
7.428035e+04, 1.758019e+11
7.435463e+04, 1.718909e+11
7.442898e+04, 1.748866e+11
7.450341e+04, 1.779909e+11
7.457792e+04, 1.765070e+11
7.465249e+04, 1.746851e+11
7.472715e+04, 1.756709e+11
7.480187e+04, 1.748608e+11
7.487668e+04, 1.795579e+11
7.495155e+04, 1.681111e+11
7.502650e+04, 1.701510e+11
7.510153e+04, 1.736780e+11
7.517663e+04, 1.698077e+11
7.525181e+04, 1.682572e+11
7.532706e+04, 1.650619e+11
7.540239e+04, 1.667474e+11
7.547779e+04, 1.683492e+11
7.555327e+04, 1.697248e+11
7.562882e+04, 1.713786e+11
7.570445e+04, 1.626277e+11
7.578015e+04, 1.624024e+11
7.585593e+04, 1.603484e+11
7.593179e+04, 1.662115e+11
7.600772e+04, 1.564857e+11
7.608373e+04, 1.597098e+11
7.615981e+04, 1.569230e+11
7.623597e+04, 1.615094e+11
7.631221e+04, 1.555673e+11
7.638852e+04, 1.598073e+11
7.646491e+04, 1.581865e+11
7.654138e+04, 1.585597e+11
7.661792e+04, 1.551348e+11
7.669453e+04, 1.543037e+11
7.677123e+04, 1.565810e+11
7.684800e+04, 1.575081e+11
7.692485e+04, 1.539214e+11
7.700177e+04, 1.555235e+11
7.707877e+04, 1.530352e+11
7.715585e+04, 1.524224e+11
7.723301e+04, 1.516776e+11
7.731024e+04, 1.510552e+11
7.738755e+04, 1.467601e+11
7.746494e+04, 1.470811e+11
7.754241e+04, 1.505461e+11
7.761995e+04, 1.476990e+11
7.769757e+04, 1.461124e+11
7.777527e+04, 1.500528e+11
7.785304e+04, 1.464281e+11
7.793089e+04, 1.468748e+11
7.800882e+04, 1.420598e+11
7.808683e+04, 1.435604e+11
7.816492e+04, 1.450479e+11
7.824308e+04, 1.469741e+11
7.832133e+04, 1.426353e+11
7.839965e+04, 1.463136e+11
7.847805e+04, 1.458944e+11
7.855653e+04, 1.391957e+11
7.863508e+04, 1.402849e+11
7.871372e+04, 1.376079e+11
7.879243e+04, 1.403310e+11
7.887122e+04, 1.372732e+11
7.895010e+04, 1.351090e+11
7.902905e+04, 1.374883e+11
7.910808e+04, 1.372317e+11
7.918718e+04, 1.380742e+11
7.926637e+04, 1.351678e+11
7.934564e+04, 1.385819e+11
7.942498e+04, 1.361205e+11
7.950441e+04, 1.358154e+11
7.958391e+04, 1.345933e+11
7.966350e+04, 1.323185e+11
7.974316e+04, 1.324416e+11
7.982290e+04, 1.292518e+11
7.990273e+04, 1.315716e+11
7.998263e+04, 1.335699e+11
8.006261e+04, 1.314742e+11
8.014267e+04, 1.315215e+11
8.022282e+04, 1.288441e+11
8.030304e+04, 1.342812e+11
8.038334e+04, 1.285801e+11
8.046373e+04, 1.281471e+11
8.054419e+04, 1.284633e+11
8.062473e+04, 1.287413e+11
8.070536e+04, 1.273642e+11
8.078606e+04, 1.259467e+11
8.086685e+04, 1.290582e+11
8.094772e+04, 1.252952e+11
8.102866e+04, 1.231948e+11
8.110969e+04, 1.246274e+11
8.119080e+04, 1.245359e+11
8.127199e+04, 1.235215e+11
8.135326e+04, 1.259452e+11
8.143462e+04, 1.257073e+11
8.151605e+04, 1.234489e+11
8.159757e+04, 1.200009e+11
8.167917e+04, 1.241722e+11
8.176085e+04, 1.236738e+11
8.184261e+04, 1.220753e+11
8.192445e+04, 1.207777e+11
8.200637e+04, 1.176763e+11
8.208838e+04, 1.175071e+11
8.217047e+04, 1.199308e+11
8.225264e+04, 1.189362e+11
8.233489e+04, 1.180855e+11
8.241723e+04, 1.186625e+11
8.249964e+04, 1.197921e+11
8.258214e+04, 1.205869e+11
8.266473e+04, 1.158227e+11
8.274739e+04, 1.169387e+11
8.283014e+04, 1.131337e+11
8.291297e+04, 1.171219e+11
8.299588e+04, 1.154933e+11
8.307888e+04, 1.159959e+11
8.316196e+04, 1.141838e+11
8.324512e+04, 1.120764e+11
8.332836e+04, 1.112338e+11
8.341169e+04, 1.138448e+11
8.349510e+04, 1.118933e+11
8.357860e+04, 1.125449e+11
8.366218e+04, 1.124279e+11
8.374584e+04, 1.087423e+11
8.382958e+04, 1.089649e+11
8.391341e+04, 1.093476e+11
8.399733e+04, 1.111578e+11
8.408132e+04, 1.109926e+11
8.416541e+04, 1.126116e+11
8.424957e+04, 1.085987e+11
8.433382e+04, 1.089153e+11
8.441815e+04, 1.089270e+11
8.450257e+04, 1.079071e+11
8.458708e+04, 1.065248e+11
8.467166e+04, 1.080214e+11
8.475633e+04, 1.080965e+11
8.484109e+04, 1.059646e+11
8.492593e+04, 1.049790e+11
8.501086e+04, 1.027880e+11
8.509587e+04, 1.066057e+11
8.518096e+04, 1.042319e+11
8.526614e+04, 1.074885e+11
8.535141e+04, 1.031265e+11
8.543676e+04, 1.032343e+11
8.552220e+04, 1.031548e+11
8.560772e+04, 1.016524e+11
8.569333e+04, 1.017121e+11
8.577902e+04, 1.034201e+11
8.586480e+04, 1.016291e+11
8.595067e+04, 1.020313e+11
8.603662e+04, 1.024380e+11
8.612265e+04, 1.015114e+11
8.620878e+04, 9.893680e+10
8.629499e+04, 9.995805e+10
8.638128e+04, 1.019575e+11
8.646766e+04, 9.967022e+10
8.655413e+04, 9.894432e+10
8.664068e+04, 1.003527e+11
8.672732e+04, 9.763401e+10
8.681405e+04, 9.552163e+10
8.690087e+04, 9.964133e+10
8.698777e+04, 1.020881e+11
8.707475e+04, 9.599736e+10
8.716183e+04, 9.574889e+10
8.724899e+04, 9.633882e+10
8.733624e+04, 9.455774e+10
8.742358e+04, 9.557873e+10
8.751100e+04, 9.454031e+10
8.759851e+04, 9.216124e+10
8.768611e+04, 9.375142e+10
8.777379e+04, 9.565938e+10
8.786157e+04, 9.346400e+10
8.794943e+04, 9.449713e+10
8.803738e+04, 9.134455e+10
8.812542e+04, 9.285800e+10
8.821354e+04, 9.177002e+10
8.830176e+04, 9.295109e+10
8.839006e+04, 9.158991e+10
8.847845e+04, 9.338040e+10
8.856693e+04, 9.030190e+10
8.865549e+04, 9.113085e+10
8.874415e+04, 9.187708e+10
8.883289e+04, 9.143552e+10
8.892173e+04, 8.949140e+10
8.901065e+04, 9.097482e+10
8.909966e+04, 8.908133e+10
8.918876e+04, 8.894195e+10
8.927795e+04, 9.060696e+10
8.936722e+04, 8.949920e+10
8.945659e+04, 8.670158e+10
8.954605e+04, 8.809113e+10
8.963559e+04, 8.782750e+10
8.972523e+04, 8.680248e+10
8.981496e+04, 8.561041e+10
8.990477e+04, 8.848101e+10
8.999467e+04, 8.669625e+10
9.008467e+04, 8.777574e+10
9.017475e+04, 8.564103e+10
9.026493e+04, 8.627616e+10
9.035519e+04, 8.516385e+10
9.044555e+04, 8.646917e+10
9.053599e+04, 8.603834e+10
9.062653e+04, 8.363408e+10
9.071716e+04, 8.485596e+10
9.080787e+04, 8.527613e+10
9.089868e+04, 8.273531e+10
9.098958e+04, 8.483060e+10
9.108057e+04, 8.254937e+10
9.117165e+04, 8.348159e+10
9.126282e+04, 8.225264e+10
9.135409e+04, 8.200748e+10
9.144544e+04, 8.344983e+10
9.153688e+04, 8.046673e+10
9.162842e+04, 8.273885e+10
9.172005e+04, 8.002325e+10
9.181177e+04, 8.197219e+10
9.190358e+04, 8.089126e+10
9.199549e+04, 7.936124e+10
9.208748e+04, 8.059240e+10
9.217957e+04, 8.044922e+10
9.227175e+04, 7.972038e+10
9.236402e+04, 7.999671e+10
9.245638e+04, 7.892943e+10
9.254884e+04, 7.737918e+10
9.264139e+04, 7.813648e+10
9.273403e+04, 7.802652e+10
9.282676e+04, 7.789444e+10
9.291959e+04, 7.727969e+10
9.301251e+04, 7.678284e+10
9.310552e+04, 7.795775e+10
9.319863e+04, 7.629184e+10
9.329183e+04, 7.575008e+10
9.338512e+04, 7.549537e+10
9.347850e+04, 7.686771e+10
9.357198e+04, 7.645549e+10
9.366556e+04, 7.643607e+10
9.375922e+04, 7.462904e+10
9.385298e+04, 7.514746e+10
9.394683e+04, 7.391456e+10
9.404078e+04, 7.373689e+10
9.413482e+04, 7.359410e+10
9.422896e+04, 7.387240e+10
9.432318e+04, 7.449706e+10
9.441751e+04, 7.137493e+10
9.451192e+04, 7.383035e+10
9.460644e+04, 7.232560e+10
9.470104e+04, 7.332884e+10
9.479574e+04, 7.207164e+10
9.489054e+04, 7.286217e+10
9.498543e+04, 7.118293e+10
9.508042e+04, 7.159243e+10
9.517550e+04, 7.107676e+10
9.527067e+04, 7.164739e+10
9.536594e+04, 7.127475e+10
9.546131e+04, 7.198522e+10
9.555677e+04, 7.065088e+10
9.565233e+04, 7.033413e+10
9.574798e+04, 6.983792e+10
9.584373e+04, 6.902509e+10
9.593957e+04, 6.912980e+10
9.603551e+04, 6.774309e+10
9.613155e+04, 6.896806e+10
9.622768e+04, 6.791713e+10
9.632390e+04, 6.803473e+10
9.642023e+04, 6.758879e+10
9.651665e+04, 6.793820e+10
9.661317e+04, 6.697851e+10
9.670978e+04, 6.715399e+10
9.680649e+04, 6.614342e+10
9.690330e+04, 6.759119e+10
9.700020e+04, 6.611464e+10
9.709720e+04, 6.657491e+10
9.719430e+04, 6.601264e+10
9.729149e+04, 6.611749e+10
9.738878e+04, 6.565545e+10
9.748617e+04, 6.600164e+10
9.758366e+04, 6.545469e+10
9.768124e+04, 6.556936e+10
9.777892e+04, 6.322037e+10
9.787670e+04, 6.453726e+10
9.797458e+04, 6.506404e+10
9.807255e+04, 6.450234e+10
9.817062e+04, 6.308204e+10
9.826879e+04, 6.337920e+10
9.836706e+04, 6.389215e+10
9.846543e+04, 6.328069e+10
9.856390e+04, 6.145187e+10
9.866246e+04, 6.317171e+10
9.876112e+04, 6.381612e+10
9.885988e+04, 6.010412e+10
9.895874e+04, 5.988295e+10
9.905770e+04, 6.140099e+10
9.915676e+04, 6.055960e+10
9.925592e+04, 5.981116e+10
9.935517e+04, 6.126265e+10
9.945453e+04, 6.169904e+10
9.955398e+04, 6.043258e+10
9.965354e+04, 6.009890e+10
9.975319e+04, 6.028230e+10
9.985294e+04, 5.934946e+10
9.995280e+04, 5.932419e+10
1.000527e+05, 5.967017e+10
1.001528e+05, 5.920230e+10
1.002530e+05, 5.946700e+10
1.003532e+05, 5.883199e+10
1.004536e+05, 5.938329e+10
1.005540e+05, 5.840523e+10
1.006546e+05, 5.647279e+10
1.007552e+05, 5.730602e+10
1.008560e+05, 5.642036e+10
1.009568e+05, 5.719883e+10
1.010578e+05, 5.700223e+10
1.011588e+05, 5.666913e+10
1.012600e+05, 5.715705e+10
1.013613e+05, 5.613241e+10
1.014626e+05, 5.627446e+10
1.015641e+05, 5.660933e+10
1.016657e+05, 5.678228e+10
1.017673e+05, 5.550489e+10
1.018691e+05, 5.502463e+10
1.019710e+05, 5.624446e+10
1.020729e+05, 5.508060e+10
1.021750e+05, 5.397659e+10
1.022772e+05, 5.472772e+10
1.023795e+05, 5.368487e+10
1.024818e+05, 5.432388e+10
1.025843e+05, 5.445275e+10
1.026869e+05, 5.399887e+10
1.027896e+05, 5.280599e+10
1.028924e+05, 5.343374e+10
1.029953e+05, 5.373517e+10
1.030983e+05, 5.296490e+10
1.032014e+05, 5.167196e+10
1.033046e+05, 5.222866e+10
1.034079e+05, 5.241447e+10
1.035113e+05, 5.261556e+10
1.036148e+05, 5.123962e+10
1.037184e+05, 5.173739e+10
1.038221e+05, 5.152231e+10
1.039259e+05, 5.162912e+10
1.040299e+05, 4.986865e+10
1.041339e+05, 5.143608e+10
1.042380e+05, 4.977117e+10
1.043423e+05, 4.952387e+10
1.044466e+05, 5.072791e+10
1.045511e+05, 4.988910e+10
1.046556e+05, 4.991360e+10
1.047603e+05, 4.867923e+10
1.048650e+05, 4.973174e+10
1.049699e+05, 4.977186e+10
1.050749e+05, 4.834772e+10
1.051799e+05, 4.903330e+10
1.052851e+05, 4.884053e+10
1.053904e+05, 4.901828e+10
1.054958e+05, 4.830584e+10
1.056013e+05, 4.795861e+10
1.057069e+05, 4.784605e+10
1.058126e+05, 4.779123e+10
1.059184e+05, 4.741541e+10
1.060243e+05, 4.639641e+10
1.061303e+05, 4.594097e+10
1.062365e+05, 4.811177e+10
1.063427e+05, 4.627397e+10
1.064491e+05, 4.747329e+10
1.065555e+05, 4.638923e+10
1.066621e+05, 4.680947e+10
1.067687e+05, 4.650461e+10
1.068755e+05, 4.542776e+10
1.069824e+05, 4.649037e+10
1.070894e+05, 4.436446e+10
1.071964e+05, 4.562576e+10
1.073036e+05, 4.502304e+10
1.074109e+05, 4.475387e+10
1.075184e+05, 4.411821e+10
1.076259e+05, 4.478877e+10
1.077335e+05, 4.490509e+10
1.078412e+05, 4.379021e+10
1.079491e+05, 4.357603e+10
1.080570e+05, 4.450998e+10
1.081651e+05, 4.363582e+10
1.082732e+05, 4.281926e+10
1.083815e+05, 4.466909e+10
1.084899e+05, 4.305477e+10
1.085984e+05, 4.380356e+10
1.087070e+05, 4.319058e+10
1.088157e+05, 4.276550e+10
1.089245e+05, 4.139159e+10
1.090334e+05, 4.185550e+10
1.091425e+05, 4.248898e+10
1.092516e+05, 4.226086e+10
1.093609e+05, 4.129493e+10
1.094702e+05, 4.162664e+10
1.095797e+05, 4.270166e+10
1.096893e+05, 4.094890e+10
1.097990e+05, 4.060777e+10
1.099088e+05, 4.038278e+10
1.100187e+05, 4.135524e+10
1.101287e+05, 4.099464e+10
1.102388e+05, 4.057711e+10
1.103491e+05, 4.108285e+10
1.104594e+05, 3.902712e+10
1.105699e+05, 3.895691e+10
1.106804e+05, 3.981056e+10
1.107911e+05, 3.963080e+10
1.109019e+05, 3.925892e+10
1.110128e+05, 4.019455e+10
1.111238e+05, 3.853117e+10
1.112349e+05, 3.946693e+10
1.113462e+05, 3.862804e+10
1.114575e+05, 4.015184e+10
1.115690e+05, 3.882202e+10
1.116806e+05, 3.874043e+10
1.117922e+05, 3.795427e+10
1.119040e+05, 3.831546e+10
1.120159e+05, 3.719968e+10
1.121279e+05, 3.803344e+10
1.122401e+05, 3.757210e+10
1.123523e+05, 3.776615e+10
1.124647e+05, 3.782740e+10
1.125771e+05, 3.731384e+10
1.126897e+05, 3.715916e+10
1.128024e+05, 3.758530e+10
1.129152e+05, 3.649410e+10
1.130281e+05, 3.613147e+10
1.131411e+05, 3.589769e+10
1.132543e+05, 3.625085e+10
1.133675e+05, 3.623352e+10
1.134809e+05, 3.677907e+10
1.135944e+05, 3.592222e+10
1.137080e+05, 3.565942e+10
1.138217e+05, 3.602743e+10
1.139355e+05, 3.561505e+10
1.140494e+05, 3.598882e+10
1.141635e+05, 3.666225e+10
1.142777e+05, 3.518965e+10
1.143919e+05, 3.451922e+10
1.145063e+05, 3.426195e+10
1.146208e+05, 3.548754e+10
1.147355e+05, 3.440824e+10
1.148502e+05, 3.420133e+10
1.149650e+05, 3.456674e+10
1.150800e+05, 3.441162e+10
1.151951e+05, 3.392635e+10
1.153103e+05, 3.402026e+10
1.154256e+05, 3.323484e+10
1.155410e+05, 3.287664e+10
1.156566e+05, 3.331710e+10
1.157722e+05, 3.305262e+10
1.158880e+05, 3.322135e+10
1.160039e+05, 3.207812e+10
1.161199e+05, 3.251343e+10
1.162360e+05, 3.300448e+10
1.163522e+05, 3.261233e+10
1.164686e+05, 3.295323e+10
1.165851e+05, 3.299284e+10
1.167016e+05, 3.279995e+10
1.168183e+05, 3.235338e+10
1.169352e+05, 3.226590e+10
1.170521e+05, 3.231256e+10
1.171691e+05, 3.162704e+10
1.172863e+05, 3.141927e+10
1.174036e+05, 3.087017e+10
1.175210e+05, 3.127160e+10
1.176385e+05, 3.111247e+10
1.177562e+05, 3.114527e+10
1.178739e+05, 3.144440e+10
1.179918e+05, 3.046164e+10
1.181098e+05, 3.111538e+10
1.182279e+05, 3.061449e+10
1.183461e+05, 2.987301e+10
1.184645e+05, 3.141292e+10
1.185829e+05, 2.964173e+10
1.187015e+05, 3.057814e+10
1.188202e+05, 3.098046e+10
1.189390e+05, 3.046425e+10
1.190580e+05, 2.909946e+10
1.191770e+05, 2.961812e+10
1.192962e+05, 2.934957e+10
1.194155e+05, 3.048057e+10
1.195349e+05, 2.949965e+10
1.196545e+05, 2.896336e+10
1.197741e+05, 3.019374e+10
1.198939e+05, 2.939528e+10
1.200138e+05, 2.897678e+10
1.201338e+05, 2.907469e+10
1.202539e+05, 2.834857e+10
1.203742e+05, 2.941953e+10
1.204946e+05, 2.804907e+10
1.206151e+05, 2.818535e+10
1.207357e+05, 2.933536e+10
1.208564e+05, 2.817260e+10
1.209773e+05, 2.823679e+10
1.210982e+05, 2.824748e+10
1.212193e+05, 2.762937e+10
1.213406e+05, 2.840148e+10
1.214619e+05, 2.718398e+10
1.215834e+05, 2.686191e+10
1.217049e+05, 2.817154e+10
1.218266e+05, 2.789948e+10
1.219485e+05, 2.756115e+10
1.220704e+05, 2.729209e+10
1.221925e+05, 2.707192e+10
1.223147e+05, 2.778041e+10
1.224370e+05, 2.674964e+10
1.225594e+05, 2.668799e+10
1.226820e+05, 2.672293e+10
1.228047e+05, 2.617517e+10
1.229275e+05, 2.658150e+10
1.230504e+05, 2.680917e+10
1.231735e+05, 2.588010e+10
1.232966e+05, 2.637123e+10
1.234199e+05, 2.661215e+10
1.235433e+05, 2.605798e+10
1.236669e+05, 2.554431e+10
1.237906e+05, 2.602797e+10
1.239144e+05, 2.628676e+10
1.240383e+05, 2.538374e+10
1.241623e+05, 2.520856e+10
1.242865e+05, 2.479621e+10
1.244108e+05, 2.483317e+10
1.245352e+05, 2.481072e+10
1.246597e+05, 2.543304e+10
1.247844e+05, 2.489244e+10
1.249091e+05, 2.510688e+10
1.250341e+05, 2.484193e+10
1.251591e+05, 2.478286e+10
1.252842e+05, 2.427491e+10
1.254095e+05, 2.427416e+10
1.255349e+05, 2.427954e+10
1.256605e+05, 2.454475e+10
1.257861e+05, 2.428139e+10
1.259119e+05, 2.410273e+10
1.260378e+05, 2.393871e+10
1.261639e+05, 2.452661e+10
1.262900e+05, 2.409510e+10
1.264163e+05, 2.351015e+10
1.265427e+05, 2.322074e+10
1.266693e+05, 2.274068e+10
1.267960e+05, 2.321784e+10
1.269227e+05, 2.381652e+10
1.270497e+05, 2.349743e+10
1.271767e+05, 2.362662e+10
1.273039e+05, 2.326758e+10
1.274312e+05, 2.387174e+10
1.275586e+05, 2.288930e+10
1.276862e+05, 2.273005e+10
1.278139e+05, 2.235392e+10
1.279417e+05, 2.238635e+10
1.280696e+05, 2.220901e+10
1.281977e+05, 2.256514e+10
1.283259e+05, 2.274800e+10
1.284542e+05, 2.226802e+10
1.285827e+05, 2.244905e+10
1.287113e+05, 2.266980e+10
1.288400e+05, 2.286578e+10
1.289688e+05, 2.209137e+10
1.290978e+05, 2.219746e+10
1.292269e+05, 2.153187e+10
1.293561e+05, 2.154607e+10
1.294855e+05, 2.188013e+10
1.296149e+05, 2.169214e+10
1.297446e+05, 2.152344e+10
1.298743e+05, 2.122403e+10
1.300042e+05, 2.167819e+10
1.301342e+05, 2.138492e+10
1.302643e+05, 2.080697e+10
1.303946e+05, 2.116050e+10
1.305250e+05, 2.094189e+10
1.306555e+05, 2.122737e+10
1.307862e+05, 2.091870e+10
1.309169e+05, 2.041084e+10
1.310479e+05, 2.128139e+10
1.311789e+05, 2.083077e+10
1.313101e+05, 2.089834e+10
1.314414e+05, 2.024117e+10
1.315728e+05, 2.041353e+10
1.317044e+05, 2.023525e+10
1.318361e+05, 1.991606e+10
1.319680e+05, 2.061289e+10
1.320999e+05, 1.932584e+10
1.322320e+05, 1.991659e+10
1.323643e+05, 2.007234e+10
1.324966e+05, 2.020111e+10
1.326291e+05, 1.947868e+10
1.327617e+05, 2.023942e+10
1.328945e+05, 1.944959e+10
1.330274e+05, 1.967355e+10
1.331604e+05, 1.931582e+10
1.332936e+05, 1.940055e+10
1.334269e+05, 1.907313e+10
1.335603e+05, 1.897751e+10
1.336939e+05, 1.940452e+10
1.338276e+05, 1.929795e+10
1.339614e+05, 1.947921e+10
1.340954e+05, 1.944033e+10
1.342294e+05, 1.874433e+10
1.343637e+05, 1.898414e+10
1.344980e+05, 1.851404e+10
1.346325e+05, 1.874642e+10
1.347672e+05, 1.861726e+10
1.349019e+05, 1.849170e+10
1.350368e+05, 1.879146e+10
1.351719e+05, 1.877424e+10
1.353070e+05, 1.810386e+10
1.354424e+05, 1.789014e+10
1.355778e+05, 1.794411e+10
1.357134e+05, 1.781670e+10
1.358491e+05, 1.822361e+10
1.359849e+05, 1.807913e+10
1.361209e+05, 1.790700e+10
1.362570e+05, 1.795606e+10
1.363933e+05, 1.736476e+10
1.365297e+05, 1.744510e+10
1.366662e+05, 1.798975e+10
1.368029e+05, 1.805522e+10
1.369397e+05, 1.724784e+10
1.370766e+05, 1.732588e+10
1.372137e+05, 1.720818e+10
1.373509e+05, 1.762165e+10
1.374883e+05, 1.709664e+10
1.376258e+05, 1.656292e+10
1.377634e+05, 1.685624e+10
1.379012e+05, 1.717477e+10
1.380391e+05, 1.742250e+10
1.381771e+05, 1.700698e+10
1.383153e+05, 1.727070e+10
1.384536e+05, 1.676002e+10
1.385920e+05, 1.663051e+10
1.387306e+05, 1.705384e+10
1.388694e+05, 1.695315e+10
1.390082e+05, 1.670741e+10
1.391472e+05, 1.654599e+10
1.392864e+05, 1.674983e+10
1.394257e+05, 1.655518e+10
1.395651e+05, 1.656154e+10
1.397047e+05, 1.601362e+10
1.398444e+05, 1.643247e+10
1.399842e+05, 1.611248e+10
1.401242e+05, 1.588083e+10
1.402643e+05, 1.627300e+10
1.404046e+05, 1.606944e+10
1.405450e+05, 1.596273e+10
1.406855e+05, 1.546883e+10
1.408262e+05, 1.591130e+10
1.409670e+05, 1.596978e+10
1.411080e+05, 1.571167e+10
1.412491e+05, 1.515918e+10
1.413904e+05, 1.531865e+10
1.415318e+05, 1.526896e+10
1.416733e+05, 1.501559e+10
1.418150e+05, 1.524730e+10
1.419568e+05, 1.507263e+10
1.420987e+05, 1.470082e+10
1.422408e+05, 1.528064e+10
1.423831e+05, 1.516753e+10
1.425255e+05, 1.540918e+10
1.426680e+05, 1.520021e+10
1.428107e+05, 1.512287e+10
1.429535e+05, 1.505225e+10
1.430964e+05, 1.515163e+10
1.432395e+05, 1.445721e+10
1.433828e+05, 1.479445e+10
1.435261e+05, 1.476405e+10
1.436697e+05, 1.467401e+10
1.438133e+05, 1.457595e+10
1.439571e+05, 1.456840e+10
1.441011e+05, 1.438902e+10
1.442452e+05, 1.433806e+10
1.443894e+05, 1.436905e+10
1.445338e+05, 1.415209e+10
1.446784e+05, 1.410691e+10
1.448231e+05, 1.392733e+10
1.449679e+05, 1.376168e+10
1.451128e+05, 1.433979e+10
1.452580e+05, 1.396202e+10
1.454032e+05, 1.405495e+10
1.455486e+05, 1.402450e+10
1.456942e+05, 1.424400e+10
1.458399e+05, 1.382952e+10
1.459857e+05, 1.381193e+10
1.461317e+05, 1.397670e+10
1.462778e+05, 1.311717e+10
1.464241e+05, 1.325279e+10
1.465705e+05, 1.279668e+10
1.467171e+05, 1.327059e+10
1.468638e+05, 1.331460e+10
1.470107e+05, 1.324399e+10
1.471577e+05, 1.295366e+10
1.473048e+05, 1.322310e+10
1.474521e+05, 1.325918e+10
1.475996e+05, 1.342781e+10
1.477472e+05, 1.321775e+10
1.478949e+05, 1.321991e+10
1.480428e+05, 1.345400e+10
1.481909e+05, 1.312422e+10
1.483391e+05, 1.297407e+10
1.484874e+05, 1.291831e+10
1.486359e+05, 1.282199e+10
1.487845e+05, 1.280627e+10
1.489333e+05, 1.258691e+10
1.490823e+05, 1.277728e+10
1.492313e+05, 1.247128e+10
1.493806e+05, 1.276525e+10
1.495299e+05, 1.261387e+10
1.496795e+05, 1.228804e+10
1.498292e+05, 1.221775e+10
1.499790e+05, 1.270798e+10
1.501290e+05, 1.231772e+10
1.502791e+05, 1.252999e+10
1.504294e+05, 1.178246e+10
1.505798e+05, 1.228865e+10
1.507304e+05, 1.255947e+10
1.508811e+05, 1.228509e+10
1.510320e+05, 1.206639e+10
1.511830e+05, 1.205001e+10
1.513342e+05, 1.177130e+10
1.514855e+05, 1.217685e+10
1.516370e+05, 1.206919e+10
1.517887e+05, 1.152823e+10
1.519405e+05, 1.182290e+10
1.520924e+05, 1.207715e+10
1.522445e+05, 1.166937e+10
1.523967e+05, 1.168422e+10
1.525491e+05, 1.136963e+10
1.527017e+05, 1.157583e+10
1.528544e+05, 1.123846e+10
1.530072e+05, 1.134905e+10
1.531602e+05, 1.121620e+10
1.533134e+05, 1.128571e+10
1.534667e+05, 1.115787e+10
1.536202e+05, 1.122275e+10
1.537738e+05, 1.110672e+10
1.539276e+05, 1.105122e+10
1.540815e+05, 1.140871e+10
1.542356e+05, 1.101172e+10
1.543898e+05, 1.105030e+10
1.545442e+05, 1.089409e+10
1.546988e+05, 1.089960e+10
1.548534e+05, 1.094987e+10
1.550083e+05, 1.098712e+10
1.551633e+05, 1.085750e+10
1.553185e+05, 1.082593e+10
1.554738e+05, 1.087179e+10
1.556293e+05, 1.069101e+10
1.557849e+05, 1.074864e+10
1.559407e+05, 1.082010e+10
1.560966e+05, 1.077308e+10
1.562527e+05, 1.075785e+10
1.564090e+05, 1.041567e+10
1.565654e+05, 1.051713e+10
1.567219e+05, 1.059849e+10
1.568787e+05, 1.050389e+10
1.570355e+05, 1.045757e+10
1.571926e+05, 1.031335e+10
1.573498e+05, 1.044333e+10
1.575071e+05, 1.014243e+10
1.576646e+05, 1.016832e+10
1.578223e+05, 1.045103e+10
1.579801e+05, 1.019993e+10
1.581381e+05, 9.979855e+09
1.582962e+05, 1.025419e+10
1.584545e+05, 1.005695e+10
1.586130e+05, 9.834339e+09
1.587716e+05, 1.018100e+10
1.589304e+05, 9.713979e+09
1.590893e+05, 9.839242e+09
1.592484e+05, 9.479483e+09
1.594076e+05, 9.929771e+09
1.595670e+05, 9.629508e+09
1.597266e+05, 9.571759e+09
1.598863e+05, 9.433898e+09
1.600462e+05, 9.499577e+09
1.602063e+05, 9.482265e+09
1.603665e+05, 9.648529e+09
1.605268e+05, 9.436486e+09
1.606874e+05, 9.648885e+09
1.608481e+05, 9.375608e+09
1.610089e+05, 9.356369e+09
1.611699e+05, 9.224193e+09
1.613311e+05, 9.545186e+09
1.614924e+05, 9.223625e+09
1.616539e+05, 9.104810e+09
1.618156e+05, 9.333195e+09
1.619774e+05, 9.230031e+09
1.621394e+05, 8.998213e+09
1.623015e+05, 9.217191e+09
1.624638e+05, 9.286976e+09
1.626263e+05, 9.053014e+09
1.627889e+05, 8.897357e+09
1.629517e+05, 9.119270e+09
1.631146e+05, 9.061152e+09
1.632777e+05, 8.843822e+09
1.634410e+05, 9.173893e+09
1.636045e+05, 9.255018e+09
1.637681e+05, 8.897268e+09
1.639318e+05, 8.612007e+09
1.640958e+05, 8.825579e+09
1.642599e+05, 8.785568e+09
1.644241e+05, 8.794397e+09
1.645885e+05, 8.889046e+09
1.647531e+05, 8.381469e+09
1.649179e+05, 8.673190e+09
1.650828e+05, 8.715241e+09
1.652479e+05, 8.634714e+09
1.654131e+05, 8.586216e+09
1.655785e+05, 8.130781e+09
1.657441e+05, 8.322565e+09
1.659099e+05, 8.402421e+09
1.660758e+05, 8.297314e+09
1.662419e+05, 8.134996e+09
1.664081e+05, 8.177137e+09
1.665745e+05, 8.193006e+09
1.667411e+05, 8.306819e+09
1.669078e+05, 8.364982e+09
1.670747e+05, 8.144358e+09
1.672418e+05, 8.056187e+09
1.674090e+05, 8.211219e+09
1.675765e+05, 7.944948e+09
1.677440e+05, 8.370800e+09
1.679118e+05, 8.021843e+09
1.680797e+05, 8.058290e+09
1.682478e+05, 7.867905e+09
1.684160e+05, 7.697716e+09
1.685844e+05, 8.037992e+09
1.687530e+05, 7.680547e+09
1.689218e+05, 7.822830e+09
1.690907e+05, 7.885435e+09
1.692598e+05, 7.671697e+09
1.694290e+05, 7.927576e+09
1.695985e+05, 7.858797e+09
1.697681e+05, 7.754911e+09
1.699378e+05, 7.656939e+09
1.701078e+05, 7.814191e+09
1.702779e+05, 7.714388e+09
1.704482e+05, 7.735761e+09
1.706186e+05, 7.636995e+09
1.707892e+05, 7.493021e+09
1.709600e+05, 7.577955e+09
1.711310e+05, 7.544179e+09
1.713021e+05, 7.283304e+09
1.714734e+05, 7.353340e+09
1.716449e+05, 7.414733e+09
1.718165e+05, 7.362354e+09
1.719883e+05, 7.269712e+09
1.721603e+05, 7.343715e+09
1.723325e+05, 7.119050e+09
1.725048e+05, 7.107351e+09
1.726773e+05, 7.113691e+09
1.728500e+05, 7.107361e+09
1.730229e+05, 7.237890e+09
1.731959e+05, 7.163415e+09
1.733691e+05, 7.049087e+09
1.735424e+05, 7.012225e+09
1.737160e+05, 7.040856e+09
1.738897e+05, 7.164598e+09
1.740636e+05, 6.890725e+09
1.742377e+05, 7.138998e+09
1.744119e+05, 6.858272e+09
1.745863e+05, 6.907164e+09
1.747609e+05, 6.738067e+09
1.749357e+05, 6.956187e+09
1.751106e+05, 6.890697e+09
1.752857e+05, 6.659021e+09
1.754610e+05, 6.659640e+09
1.756364e+05, 6.804774e+09
1.758121e+05, 6.741929e+09
1.759879e+05, 6.682002e+09
1.761639e+05, 6.722222e+09
1.763400e+05, 6.501282e+09
1.765164e+05, 6.576643e+09
1.766929e+05, 6.610848e+09
1.768696e+05, 6.667717e+09
1.770465e+05, 6.559158e+09
1.772235e+05, 6.495365e+09
1.774007e+05, 6.526011e+09
1.775781e+05, 6.479484e+09
1.777557e+05, 6.346865e+09
1.779335e+05, 6.539681e+09
1.781114e+05, 6.454400e+09
1.782895e+05, 6.397668e+09
1.784678e+05, 6.377303e+09
1.786463e+05, 6.375381e+09
1.788249e+05, 6.430327e+09
1.790037e+05, 6.418314e+09
1.791827e+05, 6.286696e+09
1.793619e+05, 6.140017e+09
1.795413e+05, 6.168488e+09
1.797208e+05, 6.320862e+09
1.799006e+05, 6.509336e+09
1.800805e+05, 6.182540e+09
1.802605e+05, 6.005201e+09
1.804408e+05, 6.163565e+09
1.806212e+05, 6.044864e+09
1.808019e+05, 5.979364e+09
1.809827e+05, 6.009148e+09
1.811636e+05, 6.174781e+09
1.813448e+05, 5.943693e+09
1.815262e+05, 5.864469e+09
1.817077e+05, 5.781585e+09
1.818894e+05, 5.849466e+09
1.820713e+05, 6.001496e+09
1.822533e+05, 5.870906e+09
1.824356e+05, 5.815574e+09
1.826180e+05, 5.828442e+09
1.828007e+05, 5.792397e+09
1.829835e+05, 5.746531e+09
1.831664e+05, 5.754583e+09
1.833496e+05, 5.846194e+09
1.835330e+05, 5.782427e+09
1.837165e+05, 5.693388e+09
1.839002e+05, 5.650656e+09
1.840841e+05, 5.678140e+09
1.842682e+05, 5.534895e+09
1.844525e+05, 5.787813e+09
1.846369e+05, 5.666493e+09
1.848215e+05, 5.717607e+09
1.850064e+05, 5.486680e+09
1.851914e+05, 5.416055e+09
1.853766e+05, 5.457830e+09
1.855619e+05, 5.348972e+09
1.857475e+05, 5.507066e+09
1.859333e+05, 5.303854e+09
1.861192e+05, 5.386902e+09
1.863053e+05, 5.341713e+09
1.864916e+05, 5.394389e+09
1.866781e+05, 5.323006e+09
1.868648e+05, 5.477792e+09
1.870516e+05, 5.327232e+09
1.872387e+05, 5.164552e+09
1.874259e+05, 5.320666e+09
1.876134e+05, 5.132407e+09
1.878010e+05, 5.265819e+09
1.879888e+05, 5.313471e+09
1.881768e+05, 5.198542e+09
1.883649e+05, 5.189133e+09
1.885533e+05, 5.149872e+09
1.887419e+05, 5.125979e+09
1.889306e+05, 5.073016e+09
1.891195e+05, 5.156048e+09
1.893086e+05, 5.064064e+09
1.894980e+05, 5.018275e+09
1.896875e+05, 5.031759e+09
1.898771e+05, 5.077228e+09
1.900670e+05, 4.968963e+09
1.902571e+05, 5.109310e+09
1.904473e+05, 4.945000e+09
1.906378e+05, 5.025628e+09
1.908284e+05, 4.912683e+09
1.910193e+05, 5.066146e+09
1.912103e+05, 5.026794e+09
1.914015e+05, 4.866777e+09
1.915929e+05, 4.999868e+09
1.917845e+05, 4.713176e+09
1.919763e+05, 4.775719e+09
1.921682e+05, 4.651747e+09
1.923604e+05, 4.718940e+09
1.925528e+05, 4.772631e+09
1.927453e+05, 4.770655e+09
1.929381e+05, 4.673318e+09
1.931310e+05, 4.731631e+09
1.933241e+05, 4.676381e+09
1.935175e+05, 4.601973e+09
1.937110e+05, 4.698293e+09
1.939047e+05, 4.774407e+09
1.940986e+05, 4.606400e+09
1.942927e+05, 4.495464e+09
1.944870e+05, 4.592456e+09
1.946815e+05, 4.612153e+09
1.948762e+05, 4.556869e+09
1.950710e+05, 4.682232e+09
1.952661e+05, 4.539537e+09
1.954614e+05, 4.579978e+09
1.956568e+05, 4.400070e+09
1.958525e+05, 4.330094e+09
1.960483e+05, 4.521088e+09
1.962444e+05, 4.292718e+09
1.964406e+05, 4.320842e+09
1.966371e+05, 4.368896e+09
1.968337e+05, 4.405861e+09
1.970305e+05, 4.446155e+09
1.972276e+05, 4.419643e+09
1.974248e+05, 4.294778e+09
1.976222e+05, 4.373265e+09
1.978198e+05, 4.344167e+09
1.980177e+05, 4.233772e+09
1.982157e+05, 4.198816e+09
1.984139e+05, 4.206416e+09
1.986123e+05, 4.259520e+09
1.988109e+05, 4.223231e+09
1.990097e+05, 4.151887e+09
1.992087e+05, 4.236271e+09
1.994080e+05, 4.092607e+09
1.996074e+05, 4.144288e+09
1.998070e+05, 4.270156e+09