wavelength[Angstrom], flux[erg / (cm3 s)]
1.000000e+03, 1.109408e-08
1.001000e+03, 6.523269e-09
1.002001e+03, 4.481906e-09
1.003003e+03, 5.716726e-09
1.004006e+03, 5.539063e-09
1.005010e+03, 7.661388e-09
1.006015e+03, 6.118679e-09
1.007021e+03, 8.091976e-09
1.008028e+03, 6.497123e-09
1.009036e+03, 7.027053e-09
1.010045e+03, 8.760534e-09
1.011055e+03, 9.528377e-09
1.012066e+03, 8.054068e-09
1.013078e+03, 9.493184e-09
1.014091e+03, 8.764644e-09
1.015105e+03, 1.352997e-08
1.016121e+03, 1.267974e-08
1.017137e+03, 1.192232e-08
1.018154e+03, 1.378438e-08
1.019172e+03, 1.618479e-08
1.020191e+03, 1.805434e-08
1.021211e+03, 1.836010e-08
1.022233e+03, 1.916707e-08
1.023255e+03, 2.007277e-08
1.024278e+03, 1.953488e-08
1.025302e+03, 1.264324e-08
1.026328e+03, 1.775697e-08
1.027354e+03, 2.908986e-08
1.028381e+03, 2.327436e-08
1.029410e+03, 2.585295e-08
1.030439e+03, 3.567195e-08
1.031470e+03, 2.885016e-08
1.032501e+03, 4.769642e-08
1.033533e+03, 3.672184e-08
1.034567e+03, 4.270902e-08
1.035602e+03, 4.348647e-08
1.036637e+03, 3.329637e-08
1.037674e+03, 6.462026e-08
1.038712e+03, 5.149645e-08
1.039750e+03, 4.964944e-08
1.040790e+03, 5.127240e-08
1.041831e+03, 6.343602e-08
1.042873e+03, 7.806134e-08
1.043915e+03, 7.884550e-08
1.044959e+03, 9.933848e-08
1.046004e+03, 8.388821e-08
1.047050e+03, 9.349394e-08
1.048097e+03, 9.027638e-08
1.049145e+03, 9.858481e-08
1.050195e+03, 9.799559e-08
1.051245e+03, 9.223176e-08
1.052296e+03, 9.153471e-08
1.053348e+03, 1.073735e-07
1.054402e+03, 1.299118e-07
1.055456e+03, 1.382213e-07
1.056512e+03, 1.264468e-07
1.057568e+03, 1.355728e-07
1.058626e+03, 1.251185e-07
1.059684e+03, 2.018219e-07
1.060744e+03, 2.493457e-07
1.061805e+03, 1.646157e-07
1.062867e+03, 2.187891e-07
1.063929e+03, 3.234902e-07
1.064993e+03, 1.892875e-07
1.066058e+03, 3.088623e-07
1.067124e+03, 2.280095e-07
1.068191e+03, 3.803943e-07
1.069260e+03, 4.099496e-07
1.070329e+03, 2.833071e-07
1.071399e+03, 3.215988e-07
1.072471e+03, 4.160131e-07
1.073543e+03, 4.559080e-07
1.074617e+03, 3.809525e-07
1.075691e+03, 8.292722e-07
1.076767e+03, 7.290598e-07
1.077844e+03, 4.396408e-07
1.078922e+03, 4.475556e-07
1.080001e+03, 6.203355e-07
1.081081e+03, 5.159341e-07
1.082162e+03, 1.176879e-06
1.083244e+03, 1.425456e-06
1.084327e+03, 8.524470e-07
1.085411e+03, 6.580357e-07
1.086497e+03, 8.422469e-07
1.087583e+03, 1.028008e-06
1.088671e+03, 1.238060e-06
1.089759e+03, 1.043798e-06
1.090849e+03, 1.733994e-06
1.091940e+03, 2.011740e-06
1.093032e+03, 1.696048e-06
1.094125e+03, 8.063272e-07
1.095219e+03, 1.786218e-06
1.096314e+03, 1.968327e-06
1.097411e+03, 1.870918e-06
1.098508e+03, 2.187549e-06
1.099607e+03, 1.182694e-06
1.100706e+03, 1.402399e-06
1.101807e+03, 1.587244e-06
1.102909e+03, 7.851949e-06
1.104012e+03, 2.780837e-06
1.105116e+03, 3.382779e-06
1.106221e+03, 4.944063e-06
1.107327e+03, 5.085428e-06
1.108434e+03, 2.116428e-06
1.109543e+03, 2.368995e-06
1.110652e+03, 6.076062e-06
1.111763e+03, 1.030933e-05
1.112875e+03, 7.494017e-06
1.113988e+03, 3.776385e-06
1.115102e+03, 3.869792e-06
1.116217e+03, 2.817340e-06
1.117333e+03, 1.054213e-05
1.118450e+03, 1.052710e-05
1.119569e+03, 5.374686e-06
1.120688e+03, 6.162365e-06
1.121809e+03, 1.430949e-05
1.122931e+03, 1.152630e-05
1.124054e+03, 7.701690e-06
1.125178e+03, 7.751207e-06
1.126303e+03, 3.890561e-05
1.127429e+03, 1.869165e-05
1.128557e+03, 1.391793e-05
1.129685e+03, 1.289819e-05
1.130815e+03, 2.122680e-05
1.131946e+03, 1.448296e-05
1.133078e+03, 2.772492e-05
1.134211e+03, 2.163609e-05
1.135345e+03, 1.242155e-05
1.136480e+03, 3.139352e-05
1.137617e+03, 4.036315e-05
1.138754e+03, 3.431400e-05
1.139893e+03, 1.478951e-05
1.141033e+03, 4.441657e-05
1.142174e+03, 4.523481e-05
1.143316e+03, 3.287210e-05
1.144460e+03, 2.451874e-05
1.145604e+03, 2.701192e-05
1.146750e+03, 3.182724e-05
1.147896e+03, 4.563565e-05
1.149044e+03, 3.488831e-05
1.150193e+03, 3.968194e-05
1.151344e+03, 2.969131e-05
1.152495e+03, 5.089062e-05
1.153647e+03, 5.803190e-05
1.154801e+03, 4.567348e-05
1.155956e+03, 5.156182e-05
1.157112e+03, 7.205938e-05
1.158269e+03, 5.308808e-05
1.159427e+03, 4.051365e-05
1.160587e+03, 8.505106e-05
1.161747e+03, 3.211513e-05
1.162909e+03, 6.231573e-05
1.164072e+03, 5.216412e-05
1.165236e+03, 4.866255e-05
1.166401e+03, 3.505571e-05
1.167568e+03, 4.993288e-05
1.168735e+03, 7.652418e-05
1.169904e+03, 4.943724e-05
1.171074e+03, 6.082002e-05
1.172245e+03, 6.068803e-05
1.173417e+03, 8.116438e-05
1.174590e+03, 8.030301e-05
1.175765e+03, 6.396080e-05
1.176941e+03, 1.177609e-04
1.178118e+03, 1.277707e-04
1.179296e+03, 1.063524e-04
1.180475e+03, 1.086281e-04
1.181656e+03, 1.235921e-04
1.182837e+03, 1.170445e-04
1.184020e+03, 1.189395e-04
1.185204e+03, 9.809000e-05
1.186389e+03, 1.130213e-04
1.187576e+03, 1.341998e-04
1.188763e+03, 1.474817e-04
1.189952e+03, 1.586318e-04
1.191142e+03, 1.441568e-04
1.192333e+03, 1.267193e-04
1.193526e+03, 1.425206e-04
1.194719e+03, 3.129172e-04
1.195914e+03, 6.382259e-04
1.197110e+03, 3.035867e-03
1.198307e+03, 6.783926e-04
1.199505e+03, 1.421641e-03
1.200705e+03, 1.167700e-03
1.201905e+03, 6.876888e-04
1.203107e+03, 1.220711e-03
1.204310e+03, 1.044209e-03
1.205515e+03, 7.774102e-04
1.206720e+03, 1.129488e-03
1.207927e+03, 6.703765e-04
1.209135e+03, 7.558288e-04
1.210344e+03, 2.779970e-04
1.211554e+03, 3.199678e-04
1.212766e+03, 2.601941e-04
1.213979e+03, 2.375212e-04
1.215193e+03, 1.121546e-04
1.216408e+03, 1.620584e-04
1.217624e+03, 2.766385e-04
1.218842e+03, 3.238337e-04
1.220061e+03, 4.548656e-04
1.221281e+03, 7.480339e-04
1.222502e+03, 1.066535e-03
1.223724e+03, 1.986380e-03
1.224948e+03, 1.714274e-03
1.226173e+03, 4.212091e-03
1.227399e+03, 2.043143e-03
1.228627e+03, 3.600807e-03
1.229855e+03, 2.254653e-03
1.231085e+03, 5.141005e-03
1.232316e+03, 9.627270e-03
1.233549e+03, 7.728569e-03
1.234782e+03, 8.625182e-03
1.236017e+03, 4.883260e-03
1.237253e+03, 5.790811e-03
1.238490e+03, 1.009815e-02
1.239729e+03, 1.481630e-02
1.240968e+03, 7.144380e-03
1.242209e+03, 7.582657e-03
1.243452e+03, 1.170108e-02
1.244695e+03, 1.385805e-02
1.245940e+03, 7.536790e-03
1.247186e+03, 1.326016e-02
1.248433e+03, 1.598196e-02
1.249681e+03, 1.504111e-02
1.250931e+03, 1.300367e-02
1.252182e+03, 1.647625e-02
1.253434e+03, 1.641052e-02
1.254688e+03, 2.188056e-02
1.255942e+03, 1.208378e-02
1.257198e+03, 9.736392e-03
1.258455e+03, 1.029107e-02
1.259714e+03, 1.806818e-02
1.260974e+03, 1.353739e-02
1.262235e+03, 1.653562e-02
1.263497e+03, 1.517541e-02
1.264760e+03, 1.818813e-02
1.266025e+03, 1.692875e-02
1.267291e+03, 1.694017e-02
1.268558e+03, 1.378479e-02
1.269827e+03, 2.649465e-02
1.271097e+03, 1.873821e-02
1.272368e+03, 1.884458e-02
1.273640e+03, 2.898521e-02
1.274914e+03, 1.731954e-02
1.276189e+03, 1.964238e-02
1.277465e+03, 2.302053e-02
1.278742e+03, 1.939488e-02
1.280021e+03, 1.708501e-02
1.281301e+03, 3.239109e-02
1.282582e+03, 2.049067e-02
1.283865e+03, 3.495800e-02
1.285149e+03, 4.045421e-02
1.286434e+03, 2.280227e-02
1.287720e+03, 3.710808e-02
1.289008e+03, 4.584080e-02
1.290297e+03, 4.665153e-02
1.291588e+03, 5.244517e-02
1.292879e+03, 3.684842e-02
1.294172e+03, 6.073341e-02
1.295466e+03, 6.721023e-02
1.296762e+03, 7.260658e-02
1.298058e+03, 6.495108e-02
1.299356e+03, 6.997394e-02
1.300656e+03, 1.029863e-01
1.301956e+03, 1.289569e-01
1.303258e+03, 1.487844e-01
1.304562e+03, 1.251767e-01
1.305866e+03, 1.316287e-01
1.307172e+03, 1.307712e-01
1.308479e+03, 1.474625e-01
1.309788e+03, 1.416087e-01
1.311098e+03, 1.011378e-01
1.312409e+03, 8.119004e-02
1.313721e+03, 9.272194e-02
1.315035e+03, 7.112841e-02
1.316350e+03, 8.711353e-02
1.317666e+03, 1.026937e-01
1.318984e+03, 8.275662e-02
1.320303e+03, 9.446249e-02
1.321623e+03, 9.683124e-02
1.322945e+03, 7.644600e-02
1.324268e+03, 8.301088e-02
1.325592e+03, 9.427135e-02
1.326918e+03, 9.228037e-02
1.328244e+03, 1.120681e-01
1.329573e+03, 1.242309e-01
1.330902e+03, 1.658171e-01
1.332233e+03, 1.635968e-01
1.333565e+03, 1.601390e-01
1.334899e+03, 1.785948e-01
1.336234e+03, 1.711061e-01
1.337570e+03, 1.865504e-01
1.338908e+03, 1.893542e-01
1.340247e+03, 2.034733e-01
1.341587e+03, 2.374212e-01
1.342928e+03, 1.712840e-01
1.344271e+03, 2.376716e-01
1.345616e+03, 1.711980e-01
1.346961e+03, 1.873573e-01
1.348308e+03, 2.442408e-01
1.349656e+03, 2.126943e-01
1.351006e+03, 2.533473e-01
1.352357e+03, 3.293748e-01
1.353709e+03, 3.841274e-01
1.355063e+03, 4.343215e-01
1.356418e+03, 3.639169e-01
1.357775e+03, 4.015206e-01
1.359132e+03, 4.291711e-01
1.360492e+03, 3.946672e-01
1.361852e+03, 3.971525e-01
1.363214e+03, 3.609192e-01
1.364577e+03, 4.307866e-01
1.365942e+03, 3.324905e-01
1.367308e+03, 3.887832e-01
1.368675e+03, 3.356655e-01
1.370044e+03, 3.899372e-01
1.371414e+03, 3.616600e-01
1.372785e+03, 3.982753e-01
1.374158e+03, 3.739924e-01
1.375532e+03, 4.716216e-01
1.376908e+03, 4.326777e-01
1.378284e+03, 5.730897e-01
1.379663e+03, 5.541678e-01
1.381042e+03, 6.531605e-01
1.382423e+03, 7.115749e-01
1.383806e+03, 7.387285e-01
1.385190e+03, 7.886063e-01
1.386575e+03, 9.332064e-01
1.387961e+03, 1.031726e+00
1.389349e+03, 1.201992e+00
1.390739e+03, 1.210216e+00
1.392130e+03, 1.457046e+00
1.393522e+03, 1.503654e+00
1.394915e+03, 1.759905e+00
1.396310e+03, 2.013649e+00
1.397706e+03, 2.306332e+00
1.399104e+03, 2.624807e+00
1.400503e+03, 3.181811e+00
1.401904e+03, 3.497360e+00
1.403306e+03, 3.426063e+00
1.404709e+03, 3.895280e+00
1.406114e+03, 4.368721e+00
1.407520e+03, 5.228219e+00
1.408927e+03, 4.488750e+00
1.410336e+03, 4.415293e+00
1.411747e+03, 6.125163e+00
1.413158e+03, 4.720822e+00
1.414571e+03, 6.050397e+00
1.415986e+03, 5.430235e+00
1.417402e+03, 7.349678e+00
1.418819e+03, 6.608155e+00
1.420238e+03, 8.765223e+00
1.421658e+03, 7.736266e+00
1.423080e+03, 7.308533e+00
1.424503e+03, 7.586812e+00
1.425928e+03, 1.020182e+01
1.427354e+03, 8.350389e+00
1.428781e+03, 9.379448e+00
1.430210e+03, 1.016953e+01
1.431640e+03, 1.122934e+01
1.433072e+03, 9.864482e+00
1.434505e+03, 1.095579e+01
1.435939e+03, 1.212136e+01
1.437375e+03, 1.223565e+01
1.438813e+03, 1.409714e+01
1.440251e+03, 1.320346e+01
1.441692e+03, 1.364614e+01
1.443133e+03, 1.386496e+01
1.444576e+03, 1.566806e+01
1.446021e+03, 1.543926e+01
1.447467e+03, 1.355899e+01
1.448914e+03, 1.837561e+01
1.450363e+03, 1.974413e+01
1.451814e+03, 1.766813e+01
1.453266e+03, 1.961135e+01
1.454719e+03, 1.958914e+01
1.456174e+03, 2.130379e+01
1.457630e+03, 1.948051e+01
1.459087e+03, 1.979123e+01
1.460546e+03, 1.968538e+01
1.462007e+03, 2.424499e+01
1.463469e+03, 2.553571e+01
1.464932e+03, 2.477903e+01
1.466397e+03, 3.089109e+01
1.467864e+03, 2.905975e+01
1.469332e+03, 2.875679e+01
1.470801e+03, 3.338661e+01
1.472272e+03, 2.688003e+01
1.473744e+03, 2.666250e+01
1.475218e+03, 3.496298e+01
1.476693e+03, 3.621927e+01
1.478170e+03, 3.385501e+01
1.479648e+03, 3.592663e+01
1.481128e+03, 3.897358e+01
1.482609e+03, 4.121688e+01
1.484091e+03, 4.298894e+01
1.485575e+03, 4.817265e+01
1.487061e+03, 4.072078e+01
1.488548e+03, 4.595614e+01
1.490037e+03, 5.126339e+01
1.491527e+03, 5.150340e+01
1.493018e+03, 4.602387e+01
1.494511e+03, 4.645189e+01
1.496006e+03, 5.994359e+01
1.497502e+03, 5.697218e+01
1.498999e+03, 6.191810e+01
1.500498e+03, 6.534429e+01
1.501999e+03, 6.465087e+01
1.503501e+03, 6.541139e+01
1.505004e+03, 6.740945e+01
1.506509e+03, 7.716022e+01
1.508016e+03, 7.763125e+01
1.509524e+03, 8.016528e+01
1.511033e+03, 7.823690e+01
1.512544e+03, 7.372283e+01
1.514057e+03, 7.062830e+01
1.515571e+03, 6.631588e+01
1.517086e+03, 6.488992e+01
1.518603e+03, 6.245589e+01
1.520122e+03, 6.335893e+01
1.521642e+03, 5.776262e+01
1.523164e+03, 5.902917e+01
1.524687e+03, 5.778344e+01
1.526212e+03, 5.794380e+01
1.527738e+03, 5.864545e+01
1.529266e+03, 5.361654e+01
1.530795e+03, 5.668867e+01
1.532326e+03, 5.090809e+01
1.533858e+03, 4.836719e+01
1.535392e+03, 4.864076e+01
1.536927e+03, 5.172419e+01
1.538464e+03, 5.042897e+01
1.540003e+03, 5.303667e+01
1.541543e+03, 5.370667e+01
1.543084e+03, 5.992530e+01
1.544627e+03, 5.444824e+01
1.546172e+03, 5.861160e+01
1.547718e+03, 5.750143e+01
1.549266e+03, 5.088602e+01
1.550815e+03, 5.047199e+01
1.552366e+03, 4.725959e+01
1.553918e+03, 5.993113e+01
1.555472e+03, 6.370695e+01
1.557028e+03, 7.513935e+01
1.558585e+03, 8.816298e+01
1.560143e+03, 9.329652e+01
1.561703e+03, 1.021013e+02
1.563265e+03, 1.002443e+02
1.564828e+03, 1.182750e+02
1.566393e+03, 1.346343e+02
1.567960e+03, 1.337142e+02
1.569528e+03, 1.465848e+02
1.571097e+03, 1.626456e+02
1.572668e+03, 1.616399e+02
1.574241e+03, 1.623292e+02
1.575815e+03, 1.665256e+02
1.577391e+03, 1.926895e+02
1.578968e+03, 2.005209e+02
1.580547e+03, 1.565910e+02
1.582128e+03, 1.307258e+02
1.583710e+03, 1.764029e+02
1.585294e+03, 1.742763e+02
1.586879e+03, 1.744225e+02
1.588466e+03, 1.972840e+02
1.590054e+03, 1.894488e+02
1.591644e+03, 1.962573e+02
1.593236e+03, 1.442260e+02
1.594829e+03, 1.727160e+02
1.596424e+03, 1.784989e+02
1.598020e+03, 1.813638e+02
1.599618e+03, 1.870793e+02
1.601218e+03, 1.764322e+02
1.602819e+03, 1.797685e+02
1.604422e+03, 1.688618e+02
1.606027e+03, 1.721299e+02
1.607633e+03, 1.990020e+02
1.609240e+03, 1.602899e+02
1.610849e+03, 1.953368e+02
1.612460e+03, 1.607977e+02
1.614073e+03, 2.015736e+02
1.615687e+03, 2.113375e+02
1.617303e+03, 1.858453e+02
1.618920e+03, 2.400943e+02
1.620539e+03, 1.803932e+02
1.622159e+03, 1.951714e+02
1.623781e+03, 2.602462e+02
1.625405e+03, 2.435154e+02
1.627031e+03, 2.925130e+02
1.628658e+03, 3.492294e+02
1.630286e+03, 4.251159e+02
1.631917e+03, 4.050791e+02
1.633549e+03, 3.956926e+02
1.635182e+03, 3.185243e+02
1.636817e+03, 5.289841e+02
1.638454e+03, 3.775624e+02
1.640093e+03, 3.011848e+02
1.641733e+03, 4.457840e+02
1.643374e+03, 5.057624e+02
1.645018e+03, 5.765386e+02
1.646663e+03, 5.721975e+02
1.648309e+03, 6.852457e+02
1.649958e+03, 6.270600e+02
1.651608e+03, 4.883420e+02
1.653259e+03, 7.047730e+02
1.654913e+03, 6.436795e+02
1.656567e+03, 5.644653e+02
1.658224e+03, 6.799291e+02
1.659882e+03, 6.021068e+02
1.661542e+03, 8.147722e+02
1.663204e+03, 8.081831e+02
1.664867e+03, 1.030576e+03
1.666532e+03, 8.179784e+02
1.668198e+03, 6.659876e+02
1.669866e+03, 5.434257e+02
1.671536e+03, 7.666855e+02
1.673208e+03, 8.440529e+02
1.674881e+03, 9.861856e+02
1.676556e+03, 1.091606e+03
1.678233e+03, 1.101820e+03
1.679911e+03, 1.156507e+03
1.681591e+03, 9.304485e+02
1.683272e+03, 1.112400e+03
1.684956e+03, 1.370717e+03
1.686640e+03, 1.230502e+03
1.688327e+03, 1.262051e+03
1.690015e+03, 1.274046e+03
1.691705e+03, 1.722518e+03
1.693397e+03, 1.295720e+03
1.695091e+03, 1.821218e+03
1.696786e+03, 2.441620e+03
1.698482e+03, 1.466558e+03
1.700181e+03, 1.458320e+03
1.701881e+03, 1.488239e+03
1.703583e+03, 1.357122e+03
1.705287e+03, 1.874920e+03
1.706992e+03, 2.346906e+03
1.708699e+03, 2.025985e+03
1.710408e+03, 2.453743e+03
1.712118e+03, 2.664109e+03
1.713830e+03, 2.764350e+03
1.715544e+03, 2.385466e+03
1.717259e+03, 1.507190e+03
1.718977e+03, 2.167106e+03
1.720696e+03, 2.125640e+03
1.722416e+03, 2.501933e+03
1.724139e+03, 2.764906e+03
1.725863e+03, 3.108616e+03
1.727589e+03, 4.105485e+03
1.729316e+03, 4.039171e+03
1.731046e+03, 4.043324e+03
1.732777e+03, 4.483835e+03
1.734510e+03, 2.414893e+03
1.736244e+03, 3.018523e+03
1.737980e+03, 3.022555e+03
1.739718e+03, 2.952386e+03
1.741458e+03, 3.120634e+03
1.743199e+03, 3.713399e+03
1.744943e+03, 4.565811e+03
1.746688e+03, 4.818047e+03
1.748434e+03, 4.118529e+03
1.750183e+03, 3.111674e+03
1.751933e+03, 3.060599e+03
1.753685e+03, 3.055859e+03
1.755439e+03, 4.809995e+03
1.757194e+03, 4.737873e+03
1.758951e+03, 4.684690e+03
1.760710e+03, 5.128998e+03
1.762471e+03, 4.731562e+03
1.764233e+03, 5.753064e+03
1.765998e+03, 5.724830e+03
1.767764e+03, 8.915543e+03
1.769531e+03, 7.540115e+03
1.771301e+03, 5.468605e+03
1.773072e+03, 4.306468e+03
1.774845e+03, 5.632000e+03
1.776620e+03, 6.184677e+03
1.778397e+03, 6.914631e+03
1.780175e+03, 7.484110e+03
1.781955e+03, 9.653820e+03
1.783737e+03, 1.041099e+04
1.785521e+03, 1.009690e+04
1.787306e+03, 1.198738e+04
1.789094e+03, 1.006674e+04
1.790883e+03, 8.768001e+03
1.792674e+03, 6.644920e+03
1.794466e+03, 9.114548e+03
1.796261e+03, 1.133482e+04
1.798057e+03, 9.961279e+03
1.799855e+03, 1.105558e+04
1.801655e+03, 1.291538e+04
1.803457e+03, 1.459553e+04
1.805260e+03, 1.348740e+04
1.807065e+03, 1.326637e+04
1.808872e+03, 1.754304e+04
1.810681e+03, 1.386608e+04
1.812492e+03, 8.155583e+03
1.814304e+03, 1.033377e+04
1.816119e+03, 1.201305e+04
1.817935e+03, 1.477528e+04
1.819753e+03, 1.186716e+04
1.821573e+03, 1.431680e+04
1.823394e+03, 1.921385e+04
1.825218e+03, 1.897873e+04
1.827043e+03, 1.786187e+04
1.828870e+03, 2.013570e+04
1.830699e+03, 2.080783e+04
1.832529e+03, 1.313341e+04
1.834362e+03, 1.247362e+04
1.836196e+03, 1.455029e+04
1.838032e+03, 1.788008e+04
1.839871e+03, 1.752890e+04
1.841710e+03, 1.938037e+04
1.843552e+03, 2.322201e+04
1.845396e+03, 2.542020e+04
1.847241e+03, 2.691838e+04
1.849088e+03, 2.658860e+04
1.850937e+03, 2.336369e+04
1.852788e+03, 2.044238e+04
1.854641e+03, 1.519963e+04
1.856496e+03, 1.545541e+04
1.858352e+03, 1.983262e+04
1.860211e+03, 2.404475e+04
1.862071e+03, 2.422931e+04
1.863933e+03, 2.220459e+04
1.865797e+03, 2.501527e+04
1.867663e+03, 3.017111e+04
1.869530e+03, 2.950121e+04
1.871400e+03, 2.980121e+04
1.873271e+03, 2.735970e+04
1.875144e+03, 2.621414e+04
1.877020e+03, 2.705069e+04
1.878897e+03, 2.589458e+04
1.880776e+03, 2.984686e+04
1.882656e+03, 3.345391e+04
1.884539e+03, 3.975683e+04
1.886424e+03, 3.912030e+04
1.888310e+03, 4.331877e+04
1.890198e+03, 4.530018e+04
1.892088e+03, 5.646390e+04
1.893981e+03, 5.420367e+04
1.895875e+03, 4.914081e+04
1.897770e+03, 4.727491e+04
1.899668e+03, 4.011420e+04
1.901568e+03, 4.960757e+04
1.903469e+03, 6.109232e+04
1.905373e+03, 5.927789e+04
1.907278e+03, 6.503034e+04
1.909186e+03, 6.944321e+04
1.911095e+03, 7.662826e+04
1.913006e+03, 7.730507e+04
1.914919e+03, 7.913452e+04
1.916834e+03, 8.736123e+04
1.918751e+03, 7.311460e+04
1.920669e+03, 7.439738e+04
1.922590e+03, 7.092454e+04
1.924513e+03, 7.666102e+04
1.926437e+03, 8.562484e+04
1.928364e+03, 8.252254e+04
1.930292e+03, 9.373778e+04
1.932222e+03, 1.038275e+05
1.934154e+03, 9.942560e+04
1.936089e+03, 9.217278e+04
1.938025e+03, 1.082078e+05
1.939963e+03, 1.051792e+05
1.941903e+03, 1.267185e+05
1.943845e+03, 9.869637e+04
1.945788e+03, 9.454806e+04
1.947734e+03, 1.142851e+05
1.949682e+03, 1.062514e+05
1.951632e+03, 1.112404e+05
1.953583e+03, 1.468341e+05
1.955537e+03, 1.325321e+05
1.957492e+03, 1.475478e+05
1.959450e+03, 1.367221e+05
1.961409e+03, 1.413268e+05
1.963371e+03, 1.549003e+05
1.965334e+03, 1.571656e+05
1.967299e+03, 1.567020e+05
1.969267e+03, 1.440961e+05
1.971236e+03, 1.750184e+05
1.973207e+03, 1.591062e+05
1.975180e+03, 1.832217e+05
1.977156e+03, 1.872789e+05
1.979133e+03, 1.979311e+05
1.981112e+03, 2.068544e+05
1.983093e+03, 2.264064e+05
1.985076e+03, 2.365850e+05
1.987061e+03, 2.275637e+05
1.989048e+03, 2.269397e+05
1.991037e+03, 1.995644e+05
1.993028e+03, 2.143495e+05
1.995021e+03, 2.016462e+05
1.997016e+03, 2.157973e+05
1.999013e+03, 2.323354e+05
2.001012e+03, 2.351337e+05
2.003013e+03, 2.616491e+05
2.005016e+03, 2.600362e+05
2.007021e+03, 2.505392e+05
2.009028e+03, 2.848943e+05
2.011037e+03, 2.975418e+05
2.013048e+03, 3.168608e+05
2.015062e+03, 3.127988e+05
2.017077e+03, 2.900754e+05
2.019094e+03, 3.037383e+05
2.021113e+03, 3.037432e+05
2.023134e+03, 3.053740e+05
2.025157e+03, 3.294455e+05
2.027182e+03, 3.073796e+05
2.029209e+03, 3.771716e+05
2.031239e+03, 3.761394e+05
2.033270e+03, 3.946219e+05
2.035303e+03, 3.711182e+05
2.037338e+03, 4.034465e+05
2.039376e+03, 4.177744e+05
2.041415e+03, 4.034630e+05
2.043457e+03, 4.099039e+05
2.045500e+03, 4.038433e+05
2.047545e+03, 4.069460e+05
2.049593e+03, 4.485448e+05
2.051643e+03, 4.527715e+05
2.053694e+03, 4.650228e+05
2.055748e+03, 4.655452e+05
2.057804e+03, 5.394635e+05
2.059861e+03, 4.715976e+05
2.061921e+03, 4.969323e+05
2.063983e+03, 4.961206e+05
2.066047e+03, 4.681049e+05
2.068113e+03, 5.616928e+05
2.070181e+03, 5.161137e+05
2.072252e+03, 1.867104e+06
2.074324e+03, 1.229240e+06
2.076398e+03, 1.151340e+06
2.078475e+03, 8.289119e+05
2.080553e+03, 1.853279e+06
2.082634e+03, 1.763602e+06
2.084716e+03, 1.682523e+06
2.086801e+03, 1.919202e+06
2.088888e+03, 2.735963e+06
2.090977e+03, 3.340270e+06
2.093068e+03, 2.654715e+06
2.095161e+03, 1.544097e+06
2.097256e+03, 3.104041e+06
2.099353e+03, 2.918228e+06
2.101452e+03, 2.699793e+06
2.103554e+03, 2.512502e+06
2.105657e+03, 2.385888e+06
2.107763e+03, 2.453971e+06
2.109871e+03, 2.322245e+06
2.111981e+03, 4.247366e+06
2.114093e+03, 3.194790e+06
2.116207e+03, 2.033318e+06
2.118323e+03, 2.394022e+06
2.120441e+03, 3.632682e+06
2.122562e+03, 5.464899e+06
2.124684e+03, 3.856778e+06
2.126809e+03, 2.769246e+06
2.128936e+03, 2.995698e+06
2.131065e+03, 4.485880e+06
2.133196e+03, 4.258268e+06
2.135329e+03, 3.898498e+06
2.137464e+03, 4.017664e+06
2.139602e+03, 4.501683e+06
2.141741e+03, 1.906469e+06
2.143883e+03, 4.401779e+06
2.146027e+03, 4.607655e+06
2.148173e+03, 2.183349e+06
2.150321e+03, 2.711981e+06
2.152472e+03, 5.072921e+06
2.154624e+03, 4.989206e+06
2.156779e+03, 6.746240e+06
2.158935e+03, 4.473054e+06
2.161094e+03, 4.632920e+06
2.163255e+03, 3.280826e+06
2.165419e+03, 3.934292e+06
2.167584e+03, 3.785135e+06
2.169752e+03, 3.372242e+06
2.171921e+03, 5.929164e+06
2.174093e+03, 4.874952e+06
2.176268e+03, 1.004799e+07
2.178444e+03, 2.186079e+06
2.180622e+03, 3.859474e+06
2.182803e+03, 3.682562e+06
2.184986e+03, 5.671427e+06
2.187171e+03, 5.623490e+06
2.189358e+03, 8.888584e+06
2.191547e+03, 7.892214e+06
2.193739e+03, 7.081981e+06
2.195932e+03, 9.294478e+06
2.198128e+03, 9.296495e+06
2.200327e+03, 3.542232e+06
2.202527e+03, 8.553029e+06
2.204729e+03, 5.881762e+06
2.206934e+03, 1.583572e+07
2.209141e+03, 9.681091e+06
2.211350e+03, 8.568713e+06
2.213562e+03, 1.401632e+07
2.215775e+03, 1.060751e+07
2.217991e+03, 6.050949e+06
2.220209e+03, 5.034040e+06
2.222429e+03, 5.878345e+06
2.224651e+03, 1.061482e+07
2.226876e+03, 7.075882e+06
2.229103e+03, 1.711421e+07
2.231332e+03, 1.157951e+07
2.233563e+03, 2.309932e+07
2.235797e+03, 3.496389e+07
2.238033e+03, 7.634703e+06
2.240271e+03, 1.465422e+07
2.242511e+03, 1.210477e+07
2.244754e+03, 1.783530e+07
2.246998e+03, 2.117909e+07
2.249245e+03, 2.186924e+07
2.251495e+03, 2.602820e+07
2.253746e+03, 3.292793e+07
2.256000e+03, 2.595638e+07
2.258256e+03, 6.784434e+06
2.260514e+03, 4.529998e+06
2.262775e+03, 8.436731e+06
2.265037e+03, 1.227594e+07
2.267302e+03, 1.363734e+07
2.269570e+03, 1.223144e+07
2.271839e+03, 2.456359e+07
2.274111e+03, 3.494111e+07
2.276385e+03, 2.104924e+07
2.278662e+03, 2.921145e+07
2.280940e+03, 2.086912e+07
2.283221e+03, 2.201942e+07
2.285504e+03, 2.224972e+07
2.287790e+03, 2.135424e+07
2.290078e+03, 2.600436e+07
2.292368e+03, 4.248312e+07
2.294660e+03, 3.185885e+07
2.296955e+03, 4.665852e+07
2.299252e+03, 2.570609e+07
2.301551e+03, 7.222067e+06
2.303853e+03, 1.009744e+07
2.306156e+03, 1.653100e+07
2.308463e+03, 2.635116e+07
2.310771e+03, 2.462816e+07
2.313082e+03, 3.104712e+07
2.315395e+03, 6.153088e+07
2.317710e+03, 9.081137e+07
2.320028e+03, 4.901457e+07
2.322348e+03, 2.664529e+07
2.324670e+03, 3.989652e+07
2.326995e+03, 3.760608e+07
2.329322e+03, 3.895287e+07
2.331651e+03, 8.892600e+07
2.333983e+03, 7.874393e+07
2.336317e+03, 6.996644e+07
2.338653e+03, 7.443928e+07
2.340992e+03, 1.173691e+08
2.343333e+03, 5.006706e+07
2.345676e+03, 1.601892e+07
2.348022e+03, 1.732927e+07
2.350370e+03, 2.961656e+07
2.352720e+03, 2.758479e+07
2.355073e+03, 2.857767e+07
2.357428e+03, 4.108536e+07
2.359786e+03, 6.415618e+07
2.362145e+03, 6.323051e+07
2.364508e+03, 8.740722e+07
2.366872e+03, 1.628230e+07
2.369239e+03, 3.472303e+07
2.371608e+03, 4.420395e+07
2.373980e+03, 2.988092e+07
2.376354e+03, 6.531499e+07
2.378730e+03, 7.524142e+07
2.381109e+03, 1.497401e+08
2.383490e+03, 1.345726e+08
2.385873e+03, 1.028537e+08
2.388259e+03, 8.676336e+07
2.390648e+03, 6.460297e+07
2.393038e+03, 7.364182e+07
2.395431e+03, 9.350976e+07
2.397827e+03, 1.268479e+08
2.400225e+03, 1.363113e+08
2.402625e+03, 2.073456e+08
2.405027e+03, 3.110471e+08
2.407432e+03, 2.353597e+08
2.409840e+03, 3.027788e+08
2.412250e+03, 1.475444e+08
2.414662e+03, 4.753201e+07
2.417077e+03, 7.185990e+07
2.419494e+03, 7.608846e+07
2.421913e+03, 8.358460e+07
2.424335e+03, 1.081574e+08
2.426759e+03, 1.882676e+08
2.429186e+03, 4.246082e+08
2.431615e+03, 3.555568e+08
2.434047e+03, 1.937293e+08
2.436481e+03, 1.783417e+08
2.438918e+03, 2.959121e+08
2.441356e+03, 2.840055e+08
2.443798e+03, 3.273827e+08
2.446242e+03, 4.170060e+08
2.448688e+03, 5.148957e+08
2.451137e+03, 4.684800e+08
2.453588e+03, 6.109955e+08
2.456041e+03, 7.486489e+08
2.458497e+03, 2.507048e+08
2.460956e+03, 1.369997e+08
2.463417e+03, 1.066461e+08
2.465880e+03, 2.810694e+08
2.468346e+03, 4.426938e+08
2.470814e+03, 3.801068e+08
2.473285e+03, 2.266602e+08
2.475758e+03, 5.253715e+08
2.478234e+03, 5.441721e+08
2.480712e+03, 2.198108e+08
2.483193e+03, 9.998518e+07
2.485676e+03, 1.200937e+08
2.488162e+03, 5.564600e+07
2.490650e+03, 5.733395e+07
2.493141e+03, 1.415430e+08
2.495634e+03, 2.492630e+08
2.498130e+03, 3.113281e+08
2.500628e+03, 2.671066e+08
2.503128e+03, 4.394520e+08
2.505632e+03, 4.797952e+08
2.508137e+03, 3.803284e+08
2.510645e+03, 1.482770e+08
2.513156e+03, 2.517376e+08
2.515669e+03, 3.540271e+08
2.518185e+03, 2.629071e+08
2.520703e+03, 4.068992e+08
2.523224e+03, 1.775595e+08
2.525747e+03, 4.648329e+08
2.528273e+03, 2.789722e+08
2.530801e+03, 4.115020e+08
2.533332e+03, 9.358591e+08
2.535865e+03, 9.197104e+08
2.538401e+03, 1.534712e+09
2.540939e+03, 9.755065e+08
2.543480e+03, 1.285429e+09
2.546024e+03, 7.026670e+08
2.548570e+03, 1.712139e+09
2.551118e+03, 1.327384e+09
2.553669e+03, 2.458889e+09
2.556223e+03, 1.496486e+09
2.558779e+03, 1.034315e+09
2.561338e+03, 1.308318e+09
2.563899e+03, 6.372951e+08
2.566463e+03, 4.710136e+08
2.569030e+03, 7.885394e+08
2.571599e+03, 1.267675e+09
2.574170e+03, 1.328584e+09
2.576745e+03, 9.808054e+08
2.579321e+03, 1.380381e+09
2.581901e+03, 1.049498e+09
2.584483e+03, 1.041002e+09
2.587067e+03, 8.585178e+08
2.589654e+03, 5.464668e+08
2.592244e+03, 8.549795e+08
2.594836e+03, 1.095867e+09
2.597431e+03, 2.362651e+09
2.600028e+03, 1.623878e+09
2.602628e+03, 2.190550e+09
2.605231e+03, 2.818173e+09
2.607836e+03, 1.610812e+09
2.610444e+03, 1.889812e+09
2.613054e+03, 1.405478e+09
2.615667e+03, 2.061873e+09
2.618283e+03, 2.083498e+09
2.620901e+03, 2.828439e+09
2.623522e+03, 2.741204e+09
2.626146e+03, 4.570648e+09
2.628772e+03, 4.085190e+09
2.631401e+03, 5.172742e+09
2.634032e+03, 4.950153e+09
2.636666e+03, 5.998071e+09
2.639303e+03, 9.393539e+09
2.641942e+03, 5.600599e+09
2.644584e+03, 3.526427e+09
2.647229e+03, 2.376066e+09
2.649876e+03, 4.313365e+09
2.652526e+03, 3.791447e+09
2.655178e+03, 7.716506e+09
2.657834e+03, 6.389752e+09
2.660491e+03, 4.263392e+09
2.663152e+03, 5.829145e+09
2.665815e+03, 4.238229e+09
2.668481e+03, 3.907519e+09
2.671149e+03, 2.592167e+09
2.673820e+03, 4.589958e+09
2.676494e+03, 5.905921e+09
2.679171e+03, 5.534947e+09
2.681850e+03, 5.160562e+09
2.684532e+03, 7.479223e+09
2.687216e+03, 7.140840e+09
2.689904e+03, 4.425098e+09
2.692593e+03, 3.744716e+09
2.695286e+03, 3.308504e+09
2.697981e+03, 3.835681e+09
2.700679e+03, 6.138334e+09
2.703380e+03, 6.284905e+09
2.706083e+03, 9.551427e+09
2.708789e+03, 8.472702e+09
2.711498e+03, 8.328262e+09
2.714210e+03, 6.360500e+09
2.716924e+03, 5.028273e+09
2.719641e+03, 1.324903e+09
2.722360e+03, 1.924674e+09
2.725083e+03, 3.353979e+09
2.727808e+03, 6.107672e+09
2.730536e+03, 5.929468e+09
2.733266e+03, 4.921622e+09
2.736000e+03, 4.267162e+09
2.738736e+03, 4.336853e+09
2.741474e+03, 6.870401e+09
2.744216e+03, 2.593029e+09
2.746960e+03, 8.621247e+09
2.749707e+03, 6.005340e+09
2.752457e+03, 7.615855e+09
2.755209e+03, 7.184421e+09
2.757964e+03, 6.112080e+09
2.760722e+03, 1.057723e+10
2.763483e+03, 1.001517e+10
2.766246e+03, 1.755666e+10
2.769013e+03, 1.193791e+10
2.771782e+03, 1.252465e+10
2.774554e+03, 1.559344e+10
2.777328e+03, 1.755346e+10
2.780105e+03, 8.014299e+09
2.782886e+03, 9.114855e+09
2.785668e+03, 1.448814e+10
2.788454e+03, 9.670640e+09
2.791243e+03, 1.785360e+10
2.794034e+03, 1.551444e+10
2.796828e+03, 1.076466e+10
2.799625e+03, 8.640701e+09
2.802424e+03, 1.060827e+10
2.805227e+03, 1.791128e+10
2.808032e+03, 1.103214e+10
2.810840e+03, 1.773972e+10
2.813651e+03, 1.576145e+10
2.816464e+03, 2.184340e+10
2.819281e+03, 1.938684e+10
2.822100e+03, 1.333624e+10
2.824922e+03, 1.543659e+10
2.827747e+03, 1.242900e+10
2.830575e+03, 1.593460e+10
2.833406e+03, 1.157578e+10
2.836239e+03, 9.972281e+09
2.839075e+03, 1.007598e+10
2.841914e+03, 8.589942e+09
2.844756e+03, 6.097632e+09
2.847601e+03, 3.899295e+09
2.850448e+03, 1.883531e+09
2.853299e+03, 5.708938e+08
2.856152e+03, 2.718031e+09
2.859008e+03, 5.282630e+09
2.861867e+03, 8.359652e+09
2.864729e+03, 1.040387e+10
2.867594e+03, 1.345866e+10
2.870462e+03, 1.531000e+10
2.873332e+03, 1.497317e+10
2.876205e+03, 1.578749e+10
2.879082e+03, 2.116043e+10
2.881961e+03, 2.517181e+10
2.884843e+03, 3.484997e+10
2.887727e+03, 3.887652e+10
2.890615e+03, 4.289697e+10
2.893506e+03, 4.374989e+10
2.896399e+03, 4.168140e+10
2.899296e+03, 4.212887e+10
2.902195e+03, 3.861257e+10
2.905097e+03, 5.065328e+10
2.908002e+03, 5.740705e+10
2.910910e+03, 4.706018e+10
2.913821e+03, 3.969217e+10
2.916735e+03, 6.812992e+10
2.919652e+03, 6.660081e+10
2.922571e+03, 7.104417e+10
2.925494e+03, 6.654327e+10
2.928420e+03, 3.048775e+10
2.931348e+03, 4.391311e+10
2.934279e+03, 5.771686e+10
2.937214e+03, 1.946594e+10
2.940151e+03, 4.941456e+10
2.943091e+03, 2.774010e+10
2.946034e+03, 4.059210e+10
2.948980e+03, 2.055878e+10
2.951929e+03, 5.975956e+10
2.954881e+03, 2.414547e+10
2.957836e+03, 2.313058e+10
2.960794e+03, 6.670091e+10
2.963754e+03, 5.601283e+10
2.966718e+03, 1.258483e+10
2.969685e+03, 1.613045e+10
2.972655e+03, 1.771988e+10
2.975627e+03, 2.832347e+10
2.978603e+03, 6.152205e+10
2.981581e+03, 3.855781e+10
2.984563e+03, 1.572802e+10
2.987548e+03, 3.914421e+10
2.990535e+03, 7.000464e+10
2.993526e+03, 3.300933e+10
2.996519e+03, 2.154966e+10
2.999516e+03, 3.353264e+10
3.002515e+03, 1.203040e+10
3.005518e+03, 3.779009e+10
3.008523e+03, 1.594416e+10
3.011532e+03, 4.926567e+10
3.014543e+03, 5.085490e+10
3.017558e+03, 3.552110e+10
3.020575e+03, 8.808144e+09
3.023596e+03, 1.800580e+10
3.026620e+03, 2.173264e+10
3.029646e+03, 7.222527e+10
3.032676e+03, 8.611024e+10
3.035709e+03, 8.148790e+10
3.038744e+03, 3.087603e+10
3.041783e+03, 6.206553e+10
3.044825e+03, 7.032502e+10
3.047870e+03, 3.290009e+10
3.050918e+03, 4.593198e+10
3.053968e+03, 7.424269e+10
3.057022e+03, 5.978262e+10
3.060079e+03, 2.716257e+10
3.063140e+03, 1.099656e+11
3.066203e+03, 1.380360e+11
3.069269e+03, 1.459535e+11
3.072338e+03, 1.892758e+11
3.075410e+03, 1.350962e+11
3.078486e+03, 1.579428e+11
3.081564e+03, 6.520467e+10
3.084646e+03, 6.291152e+10
3.087731e+03, 1.458861e+11
3.090818e+03, 9.603951e+10
3.093909e+03, 2.748918e+10
3.097003e+03, 1.040803e+11
3.100100e+03, 1.001896e+11
3.103200e+03, 9.489167e+10
3.106303e+03, 2.243537e+11
3.109410e+03, 2.975377e+11
3.112519e+03, 2.990788e+11
3.115632e+03, 2.777217e+11
3.118747e+03, 2.761731e+11
3.121866e+03, 3.101313e+11
3.124988e+03, 3.709678e+11
3.128113e+03, 4.067270e+11
3.131241e+03, 2.736135e+11
3.134372e+03, 1.684477e+11
3.137507e+03, 3.371195e+11
3.140644e+03, 3.739564e+11
3.143785e+03, 3.994582e+11
3.146928e+03, 3.783560e+11
3.150075e+03, 4.570712e+11
3.153225e+03, 3.904050e+11
3.156379e+03, 5.169166e+11
3.159535e+03, 3.329442e+11
3.162695e+03, 3.607292e+11
3.165857e+03, 4.394485e+11
3.169023e+03, 5.138959e+11
3.172192e+03, 4.890102e+11
3.175364e+03, 6.503443e+11
3.178540e+03, 6.050049e+11
3.181718e+03, 3.630373e+11
3.184900e+03, 1.725559e+11
3.188085e+03, 3.454995e+11
3.191273e+03, 3.098749e+11
3.194464e+03, 2.363021e+11
3.197659e+03, 3.324543e+11
3.200856e+03, 2.597745e+11
3.204057e+03, 5.286098e+11
3.207261e+03, 5.920490e+11
3.210469e+03, 5.203769e+11
3.213679e+03, 3.842197e+11
3.216893e+03, 3.553860e+11
3.220110e+03, 5.348814e+11
3.223330e+03, 4.084944e+11
3.226553e+03, 3.012432e+11
3.229780e+03, 4.054559e+11
3.233009e+03, 3.972992e+11
3.236242e+03, 2.718245e+11
3.239479e+03, 6.322292e+11
3.242718e+03, 5.132413e+11
3.245961e+03, 4.335883e+11
3.249207e+03, 3.480681e+11
3.252456e+03, 6.684341e+11
3.255708e+03, 7.725589e+11
3.258964e+03, 8.728231e+11
3.262223e+03, 9.411591e+11
3.265485e+03, 6.262959e+11
3.268751e+03, 1.007474e+12
3.272020e+03, 5.947354e+11
3.275292e+03, 5.477357e+11
3.278567e+03, 9.913520e+11
3.281845e+03, 9.866480e+11
3.285127e+03, 7.959680e+11
3.288412e+03, 7.644535e+11
3.291701e+03, 1.030909e+12
3.294993e+03, 1.164069e+12
3.298288e+03, 1.082868e+12
3.301586e+03, 6.766181e+11
3.304887e+03, 4.560180e+11
3.308192e+03, 7.018198e+11
3.311500e+03, 9.154891e+11
3.314812e+03, 7.877622e+11
3.318127e+03, 7.897249e+11
3.321445e+03, 8.323283e+11
3.324766e+03, 8.462063e+11
3.328091e+03, 1.271649e+12
3.331419e+03, 1.063275e+12
3.334751e+03, 8.213992e+11
3.338085e+03, 8.930010e+11
3.341423e+03, 7.925772e+11
3.344765e+03, 7.821477e+11
3.348110e+03, 1.130504e+12
3.351458e+03, 4.399765e+11
3.354809e+03, 6.807171e+11
3.358164e+03, 8.597142e+11
3.361522e+03, 2.845844e+11
3.364884e+03, 8.939627e+11
3.368249e+03, 5.912655e+11
3.371617e+03, 2.274501e+11
3.374988e+03, 6.010347e+11
3.378363e+03, 7.090606e+11
3.381742e+03, 4.472607e+11
3.385124e+03, 8.523656e+11
3.388509e+03, 8.309110e+11
3.391897e+03, 5.100510e+11
3.395289e+03, 5.831791e+11
3.398684e+03, 9.764822e+11
3.402083e+03, 1.053684e+12
3.405485e+03, 7.962626e+11
3.408891e+03, 7.603530e+11
3.412300e+03, 5.935382e+11
3.415712e+03, 1.824961e+11
3.419128e+03, 7.236794e+11
3.422547e+03, 9.568628e+11
3.425969e+03, 6.194712e+11
3.429395e+03, 8.978344e+11
3.432825e+03, 5.780329e+11
3.436257e+03, 4.597403e+11
3.439694e+03, 2.045990e+11
3.443133e+03, 9.795507e+10
3.446576e+03, 2.072415e+11
3.450023e+03, 6.264507e+11
3.453473e+03, 4.153201e+11
3.456927e+03, 7.723651e+11
3.460383e+03, 4.718409e+11
3.463844e+03, 4.648520e+11
3.467308e+03, 2.944416e+11
3.470775e+03, 7.840134e+11
3.474246e+03, 4.895758e+11
3.477720e+03, 2.338386e+11
3.481198e+03, 1.009895e+12
3.484679e+03, 8.792739e+11
3.488164e+03, 8.281033e+11
3.491652e+03, 2.221043e+11
3.495143e+03, 4.678790e+11
3.498639e+03, 4.234147e+11
3.502137e+03, 7.576188e+11
3.505639e+03, 1.453379e+12
3.509145e+03, 1.244080e+12
3.512654e+03, 6.516017e+11
3.516167e+03, 3.921412e+11
3.519683e+03, 9.433306e+11
3.523203e+03, 4.709012e+11
3.526726e+03, 2.127913e+11
3.530253e+03, 8.899268e+11
3.533783e+03, 1.346199e+12
3.537317e+03, 1.685304e+12
3.540854e+03, 1.888729e+12
3.544395e+03, 2.032531e+12
3.547939e+03, 1.456237e+12
3.551487e+03, 1.625581e+12
3.555039e+03, 1.244384e+12
3.558594e+03, 9.859920e+11
3.562152e+03, 1.211917e+12
3.565714e+03, 5.500090e+11
3.569280e+03, 5.025379e+11
3.572849e+03, 5.148546e+11
3.576422e+03, 5.808359e+11
3.579999e+03, 1.753267e+11
3.583579e+03, 3.828013e+11
3.587162e+03, 3.566438e+11
3.590749e+03, 7.651361e+11
3.594340e+03, 2.628971e+11
3.597934e+03, 7.289975e+11
3.601532e+03, 1.158532e+12
3.605134e+03, 4.163630e+11
3.608739e+03, 3.876471e+11
3.612348e+03, 7.753290e+11
3.615960e+03, 1.322878e+12
3.619576e+03, 4.808618e+11
3.623196e+03, 1.108374e+12
3.626819e+03, 1.446031e+12
3.630446e+03, 9.870439e+11
3.634076e+03, 8.343225e+11
3.637710e+03, 1.116927e+12
3.641348e+03, 1.699919e+12
3.644989e+03, 7.063793e+11
3.648634e+03, 4.307797e+11
3.652283e+03, 1.106539e+12
3.655935e+03, 1.371652e+12
3.659591e+03, 2.214571e+12
3.663251e+03, 2.255770e+12
3.666914e+03, 2.590581e+12
3.670581e+03, 1.833700e+12
3.674251e+03, 1.877454e+12
3.677926e+03, 1.518183e+12
3.681604e+03, 6.576937e+11
3.685285e+03, 1.341585e+12
3.688971e+03, 1.046993e+12
3.692660e+03, 2.092468e+12
3.696352e+03, 2.050738e+12
3.700049e+03, 2.252371e+12
3.703749e+03, 1.229120e+12
3.707452e+03, 3.998246e+11
3.711160e+03, 9.023343e+11
3.714871e+03, 1.194320e+12
3.718586e+03, 4.562575e+11
3.722304e+03, 1.536699e+11
3.726027e+03, 7.395124e+11
3.729753e+03, 6.621689e+11
3.733482e+03, 4.378898e+11
3.737216e+03, 1.594436e+11
3.740953e+03, 5.383784e+11
3.744694e+03, 4.377558e+11
3.748439e+03, 1.966130e+11
3.752187e+03, 6.023606e+11
3.755939e+03, 1.231165e+12
3.759695e+03, 7.574745e+11
3.763455e+03, 1.085765e+12
3.767219e+03, 9.139621e+11
3.770986e+03, 2.018347e+12
3.774757e+03, 2.544380e+12
3.778532e+03, 2.538630e+12
3.782310e+03, 2.993607e+12
3.786092e+03, 1.921964e+12
3.789878e+03, 1.270349e+12
3.793668e+03, 2.162510e+12
3.797462e+03, 1.471835e+12
3.801259e+03, 1.396956e+12
3.805061e+03, 2.869775e+12
3.808866e+03, 2.176664e+12
3.812675e+03, 1.999100e+12
3.816487e+03, 1.119115e+12
3.820304e+03, 7.509062e+11
3.824124e+03, 5.498028e+11
3.827948e+03, 5.631751e+11
3.831776e+03, 1.227316e+12
3.835608e+03, 1.036784e+12
3.839444e+03, 1.219991e+12
3.843283e+03, 1.449054e+12
3.847126e+03, 2.150827e+12
3.850973e+03, 1.422891e+12
3.854824e+03, 1.279998e+12
3.858679e+03, 3.498830e+11
3.862538e+03, 5.505800e+11
3.866400e+03, 1.253297e+12
3.870267e+03, 2.166975e+12
3.874137e+03, 1.473260e+12
3.878011e+03, 8.485258e+11
3.881889e+03, 1.391899e+12
3.885771e+03, 8.549253e+11
3.889657e+03, 1.019727e+12
3.893547e+03, 2.051350e+12
3.897440e+03, 1.040241e+12
3.901338e+03, 1.049137e+12
3.905239e+03, 1.703289e+12
3.909144e+03, 1.818938e+12
3.913053e+03, 3.053585e+12
3.916966e+03, 2.488684e+12
3.920883e+03, 1.118095e+12
3.924804e+03, 1.008278e+12
3.928729e+03, 9.610460e+11
3.932658e+03, 7.605040e+11
3.936590e+03, 1.290566e+12
3.940527e+03, 1.965358e+12
3.944467e+03, 5.674785e+11
3.948412e+03, 1.203200e+12
3.952360e+03, 2.285158e+12
3.956313e+03, 1.942265e+12
3.960269e+03, 8.301415e+11
3.964229e+03, 6.290237e+11
3.968194e+03, 1.135262e+12
3.972162e+03, 1.903054e+12
3.976134e+03, 2.812504e+12
3.980110e+03, 3.760258e+12
3.984090e+03, 2.891926e+12
3.988074e+03, 4.366701e+12
3.992062e+03, 3.327341e+12
3.996054e+03, 4.511668e+12
4.000050e+03, 3.088943e+12
4.004050e+03, 5.031492e+12
4.008055e+03, 3.756939e+12
4.012063e+03, 3.899943e+12
4.016075e+03, 5.777613e+12
4.020091e+03, 4.669281e+12
4.024111e+03, 3.887576e+12
4.028135e+03, 4.174872e+12
4.032163e+03, 1.371435e+12
4.036195e+03, 2.055926e+12
4.040231e+03, 4.900400e+12
4.044272e+03, 3.537237e+12
4.048316e+03, 2.295423e+12
4.052364e+03, 5.526453e+12
4.056417e+03, 5.141992e+12
4.060473e+03, 4.734136e+12
4.064533e+03, 2.827419e+12
4.068598e+03, 4.831640e+12
4.072667e+03, 3.436708e+12
4.076739e+03, 4.846157e+12
4.080816e+03, 5.135324e+12
4.084897e+03, 5.401586e+12
4.088982e+03, 7.042253e+12
4.093071e+03, 5.406756e+12
4.097164e+03, 4.173770e+12
4.101261e+03, 3.322815e+12
4.105362e+03, 4.333136e+12
4.109468e+03, 4.209477e+12
4.113577e+03, 3.922434e+12
4.117691e+03, 3.923199e+12
4.121808e+03, 4.116683e+12
4.125930e+03, 5.324128e+12
4.130056e+03, 3.987452e+12
4.134186e+03, 3.021035e+12
4.138320e+03, 5.100407e+12
4.142459e+03, 3.703077e+12
4.146601e+03, 3.627226e+12
4.150748e+03, 4.532471e+12
4.154898e+03, 4.601361e+12
4.159053e+03, 4.965007e+12
4.163212e+03, 5.446831e+12
4.167376e+03, 4.191264e+12
4.171543e+03, 3.969992e+12
4.175714e+03, 3.515590e+12
4.179890e+03, 4.180617e+12
4.184070e+03, 3.987972e+12
4.188254e+03, 3.562362e+12
4.192442e+03, 3.596627e+12
4.196635e+03, 3.545183e+12
4.200831e+03, 2.709591e+12
4.205032e+03, 2.538455e+12
4.209237e+03, 2.347922e+12
4.213447e+03, 1.933346e+12
4.217660e+03, 1.343132e+12
4.221878e+03, 9.021828e+11
4.226100e+03, 3.416174e+11
4.230326e+03, 4.306701e+11
4.234556e+03, 9.746164e+11
4.238791e+03, 1.582613e+12
4.243029e+03, 2.162790e+12
4.247272e+03, 2.679676e+12
4.251520e+03, 2.388671e+12
4.255771e+03, 1.391886e+12
4.260027e+03, 2.851114e+12
4.264287e+03, 3.953943e+12
4.268551e+03, 4.003435e+12
4.272820e+03, 2.477559e+12
4.277093e+03, 1.887583e+12
4.281370e+03, 3.977840e+12
4.285651e+03, 3.132277e+12
4.289937e+03, 1.985682e+12
4.294227e+03, 3.343180e+12
4.298521e+03, 3.699776e+12
4.302819e+03, 2.531004e+12
4.307122e+03, 3.087586e+12
4.311429e+03, 4.578822e+12
4.315741e+03, 4.934457e+12
4.320057e+03, 4.287674e+12
4.324377e+03, 5.034303e+12
4.328701e+03, 4.706244e+12
4.333030e+03, 6.440741e+12
4.337363e+03, 6.132158e+12
4.341700e+03, 5.465833e+12
4.346042e+03, 5.745612e+12
4.350388e+03, 6.716466e+12
4.354738e+03, 4.541192e+12
4.359093e+03, 5.951408e+12
4.363452e+03, 6.885590e+12
4.367815e+03, 7.187385e+12
4.372183e+03, 6.463555e+12
4.376555e+03, 5.018032e+12
4.380932e+03, 5.253631e+12
4.385313e+03, 3.181393e+12
4.389698e+03, 5.622680e+12
4.394088e+03, 6.446486e+12
4.398482e+03, 6.443766e+12
4.402881e+03, 5.816444e+12
4.407283e+03, 3.509398e+12
4.411691e+03, 6.345066e+12
4.416102e+03, 5.635808e+12
4.420518e+03, 7.438169e+12
4.424939e+03, 4.457060e+12
4.429364e+03, 4.315186e+12
4.433793e+03, 5.112104e+12
4.438227e+03, 4.100258e+12
4.442665e+03, 5.527884e+12
4.447108e+03, 6.458966e+12
4.451555e+03, 6.077577e+12
4.456007e+03, 3.057207e+12
4.460463e+03, 4.629102e+12
4.464923e+03, 4.874078e+12
4.469388e+03, 6.017398e+12
4.473857e+03, 6.448818e+12
4.478331e+03, 6.762913e+12
4.482810e+03, 5.838521e+12
4.487292e+03, 6.939318e+12
4.491780e+03, 6.649619e+12
4.496272e+03, 5.999821e+12
4.500768e+03, 7.653648e+12
4.505269e+03, 7.324655e+12
4.509774e+03, 6.154863e+12
4.514284e+03, 6.104946e+12
4.518798e+03, 6.507791e+12
4.523317e+03, 6.841313e+12
4.527840e+03, 5.607532e+12
4.532368e+03, 5.670250e+12
4.536900e+03, 4.878430e+12
4.541437e+03, 7.486139e+12
4.545979e+03, 6.934190e+12
4.550525e+03, 6.141991e+12
4.555075e+03, 5.827971e+12
4.559630e+03, 7.481367e+12
4.564190e+03, 8.018312e+12
4.568754e+03, 8.320494e+12
4.573323e+03, 7.501882e+12
4.577896e+03, 7.533783e+12
4.582474e+03, 6.326825e+12
4.587056e+03, 4.784522e+12
4.591643e+03, 5.015738e+12
4.596235e+03, 4.843660e+12
4.600831e+03, 5.456368e+12
4.605432e+03, 5.715528e+12
4.610038e+03, 5.309796e+12
4.614648e+03, 7.257589e+12
4.619262e+03, 6.690892e+12
4.623882e+03, 7.307307e+12
4.628505e+03, 4.850254e+12
4.633134e+03, 4.927582e+12
4.637767e+03, 5.019231e+12
4.642405e+03, 5.244903e+12
4.647047e+03, 5.243834e+12
4.651694e+03, 5.183853e+12
4.656346e+03, 5.806570e+12
4.661002e+03, 7.612708e+12
4.665663e+03, 6.930341e+12
4.670329e+03, 4.767841e+12
4.674999e+03, 4.940359e+12
4.679674e+03, 5.531264e+12
4.684354e+03, 4.835000e+12
4.689038e+03, 6.133594e+12
4.693727e+03, 6.470137e+12
4.698421e+03, 6.539277e+12
4.703120e+03, 7.117401e+12
4.707823e+03, 7.385315e+12
4.712530e+03, 6.663585e+12
4.717243e+03, 5.146271e+12
4.721960e+03, 5.681453e+12
4.726682e+03, 6.374222e+12
4.731409e+03, 6.483533e+12
4.736140e+03, 6.552929e+12
4.740876e+03, 6.463957e+12
4.745617e+03, 6.755031e+12
4.750363e+03, 7.223144e+12
4.755113e+03, 6.820545e+12
4.759868e+03, 5.608457e+12
4.764628e+03, 3.116510e+12
4.769393e+03, 3.202670e+12
4.774162e+03, 3.610248e+12
4.778936e+03, 4.042228e+12
4.783715e+03, 4.159277e+12
4.788499e+03, 4.100650e+12
4.793288e+03, 4.986483e+12
4.798081e+03, 5.855202e+12
4.802879e+03, 5.869839e+12
4.807682e+03, 3.482986e+12
4.812490e+03, 3.463013e+12
4.817302e+03, 4.149416e+12
4.822119e+03, 4.835019e+12
4.826941e+03, 4.776642e+12
4.831768e+03, 5.040364e+12
4.836600e+03, 5.824119e+12
4.841437e+03, 5.889138e+12
4.846278e+03, 6.878247e+12
4.851124e+03, 5.116270e+12
4.855976e+03, 5.291340e+12
4.860832e+03, 6.216610e+12
4.865692e+03, 6.492635e+12
4.870558e+03, 6.781370e+12
4.875429e+03, 6.765575e+12
4.880304e+03, 7.089314e+12
4.885184e+03, 7.876214e+12
4.890070e+03, 8.366820e+12
4.894960e+03, 8.047103e+12
4.899855e+03, 8.156079e+12
4.904754e+03, 8.073302e+12
4.909659e+03, 8.354739e+12
4.914569e+03, 8.937924e+12
4.919483e+03, 9.088055e+12
4.924403e+03, 9.645496e+12
4.929327e+03, 9.837184e+12
4.934257e+03, 1.093145e+13
4.939191e+03, 1.035532e+13
4.944130e+03, 9.922469e+12
4.949074e+03, 1.035778e+13
4.954023e+03, 9.768771e+12
4.958977e+03, 2.945201e+12
4.963936e+03, 3.503377e+12
4.968900e+03, 4.373371e+12
4.973869e+03, 4.479294e+12
4.978843e+03, 4.882789e+12
4.983822e+03, 5.025052e+12
4.988806e+03, 5.759050e+12
4.993794e+03, 5.632975e+12
4.998788e+03, 5.397908e+12
5.003787e+03, 3.902850e+12
5.008791e+03, 3.810319e+12
5.013800e+03, 3.949783e+12
5.018813e+03, 4.595266e+12
5.023832e+03, 4.373219e+12
5.028856e+03, 4.946495e+12
5.033885e+03, 6.363193e+12
5.038919e+03, 5.678235e+12
5.043958e+03, 5.201672e+12
5.049002e+03, 6.127496e+12
5.054051e+03, 5.954841e+12
5.059105e+03, 5.764061e+12
5.064164e+03, 5.789275e+12
5.069228e+03, 6.416723e+12
5.074297e+03, 6.832419e+12
5.079372e+03, 6.502505e+12
5.084451e+03, 7.163354e+12
5.089535e+03, 6.894490e+12
5.094625e+03, 6.818237e+12
5.099720e+03, 6.659931e+12
5.104819e+03, 7.507799e+12
5.109924e+03, 7.005918e+12
5.115034e+03, 8.983270e+12
5.120149e+03, 7.353324e+12
5.125269e+03, 7.469999e+12
5.130394e+03, 6.655138e+12
5.135525e+03, 9.725477e+12
5.140660e+03, 8.804644e+12
5.145801e+03, 7.143837e+12
5.150947e+03, 7.276923e+12
5.156098e+03, 6.687280e+12
5.161254e+03, 1.198180e+13
5.166415e+03, 8.491412e+12
5.171582e+03, 2.462195e+12
5.176753e+03, 3.318013e+12
5.181930e+03, 3.171274e+12
5.187112e+03, 4.633901e+12
5.192299e+03, 5.191669e+12
5.197491e+03, 5.959468e+12
5.202689e+03, 6.217741e+12
5.207891e+03, 3.660709e+12
5.213099e+03, 6.593769e+12
5.218312e+03, 9.450477e+12
5.223531e+03, 1.072054e+13
5.228754e+03, 9.011052e+12
5.233983e+03, 1.152546e+13
5.239217e+03, 1.144367e+13
5.244456e+03, 8.830161e+12
5.249701e+03, 8.816574e+12
5.254950e+03, 1.082618e+13
5.260205e+03, 1.134357e+13
5.265465e+03, 7.245494e+12
5.270731e+03, 6.928696e+12
5.276002e+03, 1.085890e+13
5.281278e+03, 1.182454e+13
5.286559e+03, 1.248525e+13
5.291846e+03, 1.324287e+13
5.297137e+03, 1.179153e+13
5.302435e+03, 1.264269e+13
5.307737e+03, 1.470934e+13
5.313045e+03, 1.213360e+13
5.318358e+03, 1.276562e+13
5.323676e+03, 1.244782e+13
5.329000e+03, 8.822115e+12
5.334329e+03, 1.253441e+13
5.339663e+03, 1.331532e+13
5.345003e+03, 1.214679e+13
5.350348e+03, 1.251270e+13
5.355698e+03, 1.521238e+13
5.361054e+03, 1.271832e+13
5.366415e+03, 1.237527e+13
5.371781e+03, 1.067169e+13
5.377153e+03, 1.380841e+13
5.382530e+03, 1.466511e+13
5.387913e+03, 1.530613e+13
5.393301e+03, 1.392297e+13
5.398694e+03, 1.175419e+13
5.404093e+03, 1.362170e+13
5.409497e+03, 1.089758e+13
5.414906e+03, 1.480541e+13
5.420321e+03, 1.561399e+13
5.425741e+03, 1.456811e+13
5.431167e+03, 1.282426e+13
5.436598e+03, 1.337863e+13
5.442035e+03, 1.598154e+13
5.447477e+03, 1.197916e+13
5.452924e+03, 6.666943e+12
5.458377e+03, 7.005578e+12
5.463836e+03, 8.377728e+12
5.469300e+03, 9.373219e+12
5.474769e+03, 9.724237e+12
5.480244e+03, 1.014169e+13
5.485724e+03, 1.077633e+13
5.491210e+03, 1.156707e+13
5.496701e+03, 1.045975e+13
5.502198e+03, 8.394351e+12
5.507700e+03, 9.135000e+12
5.513207e+03, 9.210327e+12
5.518721e+03, 1.041773e+13
5.524239e+03, 1.151451e+13
5.529764e+03, 1.194537e+13
5.535293e+03, 1.137455e+13
5.540829e+03, 1.257940e+13
5.546370e+03, 1.255392e+13
5.551916e+03, 1.242151e+13
5.557468e+03, 1.363280e+13
5.563025e+03, 1.371621e+13
5.568588e+03, 1.289196e+13
5.574157e+03, 1.308266e+13
5.579731e+03, 1.350225e+13
5.585311e+03, 1.285305e+13
5.590896e+03, 1.075808e+13
5.596487e+03, 1.145580e+13
5.602083e+03, 7.961322e+12
5.607686e+03, 9.715625e+12
5.613293e+03, 9.976888e+12
5.618907e+03, 9.325965e+12
5.624525e+03, 1.027433e+13
5.630150e+03, 9.628821e+12
5.635780e+03, 1.019144e+13
5.641416e+03, 9.845363e+12
5.647057e+03, 1.066655e+13
5.652704e+03, 1.196666e+13
5.658357e+03, 1.222877e+13
5.664015e+03, 1.019501e+13
5.669679e+03, 1.079768e+13
5.675349e+03, 1.113868e+13
5.681024e+03, 1.244177e+13
5.686705e+03, 1.177775e+13
5.692392e+03, 1.297653e+13
5.698085e+03, 1.299288e+13
5.703783e+03, 1.276069e+13
5.709486e+03, 1.291648e+13
5.715196e+03, 1.333126e+13
5.720911e+03, 1.461457e+13
5.726632e+03, 1.410020e+13
5.732359e+03, 1.507534e+13
5.738091e+03, 1.578600e+13
5.743829e+03, 1.614484e+13
5.749573e+03, 1.635017e+13
5.755323e+03, 1.640850e+13
5.761078e+03, 1.354307e+13
5.766839e+03, 1.279270e+13
5.772606e+03, 1.352847e+13
5.778378e+03, 1.443190e+13
5.784157e+03, 1.488138e+13
5.789941e+03, 1.518123e+13
5.795731e+03, 1.598633e+13
5.801527e+03, 1.604950e+13
5.807328e+03, 1.628440e+13
5.813135e+03, 1.361513e+13
5.818949e+03, 1.359987e+13
5.824768e+03, 1.438596e+13
5.830592e+03, 1.460680e+13
5.836423e+03, 1.487282e+13
5.842259e+03, 1.424179e+13
5.848102e+03, 1.309876e+13
5.853950e+03, 1.102811e+13
5.859804e+03, 1.068253e+13
5.865663e+03, 9.680283e+12
5.871529e+03, 9.184486e+12
5.877401e+03, 7.570399e+12
5.883278e+03, 6.423950e+12
5.889161e+03, 3.588813e+12
5.895050e+03, 3.081811e+12
5.900945e+03, 4.551839e+12
5.906846e+03, 6.469225e+12
5.912753e+03, 7.361954e+12
5.918666e+03, 7.971735e+12
5.924585e+03, 8.116781e+12
5.930509e+03, 8.618713e+12
5.936440e+03, 9.500799e+12
5.942376e+03, 1.000957e+13
5.948319e+03, 9.487431e+12
5.954267e+03, 9.599624e+12
5.960221e+03, 9.424006e+12
5.966181e+03, 1.020982e+13
5.972148e+03, 1.055558e+13
5.978120e+03, 1.062592e+13
5.984098e+03, 1.158705e+13
5.990082e+03, 1.226340e+13
5.996072e+03, 1.225792e+13
6.002068e+03, 1.246962e+13
6.008070e+03, 1.211365e+13
6.014078e+03, 1.342585e+13
6.020092e+03, 1.359166e+13
6.026112e+03, 1.455055e+13
6.032139e+03, 1.519058e+13
6.038171e+03, 1.559161e+13
6.044209e+03, 1.549381e+13
6.050253e+03, 1.647944e+13
6.056303e+03, 1.677310e+13
6.062360e+03, 1.711149e+13
6.068422e+03, 1.721764e+13
6.074490e+03, 1.887966e+13
6.080565e+03, 1.932255e+13
6.086645e+03, 2.002169e+13
6.092732e+03, 1.889317e+13
6.098825e+03, 1.907973e+13
6.104924e+03, 1.580780e+13
6.111029e+03, 1.860101e+13
6.117140e+03, 2.010443e+13
6.123257e+03, 1.524849e+13
6.129380e+03, 1.974372e+13
6.135509e+03, 2.044746e+13
6.141645e+03, 2.103418e+13
6.147787e+03, 2.139116e+13
6.153934e+03, 1.751343e+13
6.160088e+03, 1.283969e+13
6.166248e+03, 8.991548e+12
6.172415e+03, 1.087982e+13
6.178587e+03, 1.106393e+13
6.184766e+03, 1.172177e+13
6.190950e+03, 8.784252e+12
6.197141e+03, 9.493202e+12
6.203338e+03, 1.029907e+13
6.209542e+03, 1.142073e+13
6.215751e+03, 8.600881e+12
6.221967e+03, 8.844140e+12
6.228189e+03, 7.323044e+12
6.234417e+03, 8.292265e+12
6.240652e+03, 8.464127e+12
6.246892e+03, 8.819968e+12
6.253139e+03, 1.005285e+13
6.259392e+03, 1.013283e+13
6.265652e+03, 1.096482e+13
6.271917e+03, 1.129859e+13
6.278189e+03, 1.095551e+13
6.284467e+03, 1.154182e+13
6.290752e+03, 1.193030e+13
6.297043e+03, 1.176335e+13
6.303340e+03, 1.281004e+13
6.309643e+03, 1.281761e+13
6.315953e+03, 1.450200e+13
6.322269e+03, 1.341380e+13
6.328591e+03, 1.399113e+13
6.334920e+03, 1.439526e+13
6.341254e+03, 1.560829e+13
6.347596e+03, 1.663338e+13
6.353943e+03, 1.535416e+13
6.360297e+03, 1.294410e+13
6.366658e+03, 1.337956e+13
6.373024e+03, 1.364288e+13
6.379397e+03, 1.294139e+13
6.385777e+03, 1.236562e+13
6.392162e+03, 1.209900e+13
6.398555e+03, 1.407316e+13
6.404953e+03, 1.488024e+13
6.411358e+03, 1.689133e+13
6.417769e+03, 1.547729e+13
6.424187e+03, 1.505932e+13
6.430611e+03, 1.533752e+13
6.437042e+03, 1.607870e+13
6.443479e+03, 1.601162e+13
6.449923e+03, 1.674596e+13
6.456372e+03, 1.741257e+13
6.462829e+03, 1.590946e+13
6.469292e+03, 1.981229e+13
6.475761e+03, 2.023810e+13
6.482237e+03, 1.918812e+13
6.488719e+03, 1.750672e+13
6.495208e+03, 1.638588e+13
6.501703e+03, 1.847876e+13
6.508205e+03, 2.113755e+13
6.514713e+03, 2.065336e+13
6.521227e+03, 2.130577e+13
6.527749e+03, 2.237237e+13
6.534276e+03, 2.276166e+13
6.540811e+03, 2.410761e+13
6.547352e+03, 2.183025e+13
6.553899e+03, 2.044519e+13
6.560453e+03, 2.123936e+13
6.567013e+03, 2.109050e+13
6.573580e+03, 1.958987e+13
6.580154e+03, 2.060123e+13
6.586734e+03, 2.171310e+13
6.593321e+03, 2.150524e+13
6.599914e+03, 2.176543e+13
6.606514e+03, 2.178120e+13
6.613120e+03, 2.073082e+13
6.619734e+03, 2.013259e+13
6.626353e+03, 1.961945e+13
6.632980e+03, 2.019083e+13
6.639613e+03, 1.970043e+13
6.646252e+03, 2.011087e+13
6.652899e+03, 1.574159e+13
6.659551e+03, 1.491875e+13
6.666211e+03, 1.645740e+13
6.672877e+03, 1.703706e+13
6.679550e+03, 1.579786e+13
6.686230e+03, 1.169588e+13
6.692916e+03, 1.374100e+13
6.699609e+03, 1.427122e+13
6.706308e+03, 1.364013e+13
6.713015e+03, 1.337355e+13
6.719728e+03, 1.011374e+13
6.726447e+03, 1.061325e+13
6.733174e+03, 1.151663e+13
6.739907e+03, 1.187230e+13
6.746647e+03, 1.199096e+13
6.753394e+03, 1.072709e+13
6.760147e+03, 1.156638e+13
6.766907e+03, 1.273368e+13
6.773674e+03, 1.388545e+13
6.780448e+03, 1.283369e+13
6.787228e+03, 1.038087e+13
6.794015e+03, 1.117646e+13
6.800809e+03, 1.195876e+13
6.807610e+03, 1.247586e+13
6.814418e+03, 1.264739e+13
6.821232e+03, 1.248176e+13
6.828053e+03, 1.267779e+13
6.834882e+03, 1.309673e+13
6.841716e+03, 1.312231e+13
6.848558e+03, 1.336095e+13
6.855407e+03, 1.153818e+13
6.862262e+03, 1.143629e+13
6.869124e+03, 1.250271e+13
6.875994e+03, 1.325285e+13
6.882869e+03, 1.328423e+13
6.889752e+03, 1.291450e+13
6.896642e+03, 1.409919e+13
6.903539e+03, 1.392789e+13
6.910442e+03, 1.564242e+13
6.917353e+03, 1.511632e+13
6.924270e+03, 1.618989e+13
6.931194e+03, 1.731938e+13
6.938126e+03, 1.758580e+13
6.945064e+03, 1.936738e+13
6.952009e+03, 2.033814e+13
6.958961e+03, 2.014517e+13
6.965920e+03, 2.129659e+13
6.972886e+03, 2.159829e+13
6.979859e+03, 2.120059e+13
6.986838e+03, 2.390822e+13
6.993825e+03, 2.141515e+13
7.000819e+03, 2.269354e+13
7.007820e+03, 2.344436e+13
7.014828e+03, 2.451137e+13
7.021843e+03, 2.527052e+13
7.028864e+03, 2.905683e+13
7.035893e+03, 2.658961e+13
7.042929e+03, 3.211818e+13
7.049972e+03, 3.452326e+13
7.057022e+03, 2.204043e+13
7.064079e+03, 1.636759e+13
7.071143e+03, 2.010561e+13
7.078214e+03, 2.129676e+13
7.085292e+03, 2.218803e+13
7.092378e+03, 1.238302e+13
7.099470e+03, 1.340322e+13
7.106570e+03, 1.552611e+13
7.113676e+03, 1.681189e+13
7.120790e+03, 1.933962e+13
7.127911e+03, 1.259988e+13
7.135039e+03, 1.042753e+13
7.142174e+03, 1.147591e+13
7.149316e+03, 1.216421e+13
7.156465e+03, 1.454732e+13
7.163622e+03, 1.284913e+13
7.170785e+03, 1.427462e+13
7.177956e+03, 1.609419e+13
7.185134e+03, 1.739621e+13
7.192319e+03, 1.836090e+13
7.199511e+03, 1.623756e+13
7.206711e+03, 1.543567e+13
7.213918e+03, 1.646013e+13
7.221132e+03, 1.838899e+13
7.228353e+03, 1.976458e+13
7.235581e+03, 2.045351e+13
7.242817e+03, 2.133904e+13
7.250059e+03, 2.354711e+13
7.257309e+03, 2.492299e+13
7.264567e+03, 2.595539e+13
7.271831e+03, 2.499876e+13
7.279103e+03, 2.637294e+13
7.286382e+03, 2.759161e+13
7.293669e+03, 2.846665e+13
7.300962e+03, 3.045757e+13
7.308263e+03, 3.071190e+13
7.315572e+03, 3.216644e+13
7.322887e+03, 3.310738e+13
7.330210e+03, 3.139422e+13
7.337540e+03, 3.485246e+13
7.344878e+03, 3.472729e+13
7.352223e+03, 3.559953e+13
7.359575e+03, 3.554139e+13
7.366934e+03, 3.711729e+13
7.374301e+03, 3.851935e+13
7.381676e+03, 3.864122e+13
7.389057e+03, 3.916272e+13
7.396446e+03, 3.982280e+13
7.403843e+03, 3.905835e+13
7.411247e+03, 4.069288e+13
7.418658e+03, 3.973207e+13
7.426077e+03, 3.971467e+13
7.433503e+03, 4.113137e+13
7.440936e+03, 4.126837e+13
7.448377e+03, 4.033373e+13
7.455825e+03, 4.132383e+13
7.463281e+03, 4.044614e+13
7.470745e+03, 4.200493e+13
7.478215e+03, 4.242998e+13
7.485694e+03, 4.153850e+13
7.493179e+03, 4.126380e+13
7.500672e+03, 4.174252e+13
7.508173e+03, 4.241166e+13
7.515681e+03, 4.224561e+13
7.523197e+03, 4.291833e+13
7.530720e+03, 4.185823e+13
7.538251e+03, 4.284005e+13
7.545789e+03, 4.413489e+13
7.553335e+03, 4.378614e+13
7.560888e+03, 4.443908e+13
7.568449e+03, 4.354084e+13
7.576018e+03, 4.248698e+13
7.583594e+03, 4.463603e+13
7.591177e+03, 3.734519e+13
7.598768e+03, 3.702520e+13
7.606367e+03, 3.704552e+13
7.613973e+03, 3.720208e+13
7.621587e+03, 3.982126e+13
7.629209e+03, 3.458717e+13
7.636838e+03, 3.294923e+13
7.644475e+03, 3.339615e+13
7.652120e+03, 3.370500e+13
7.659772e+03, 3.275549e+13
7.667431e+03, 1.925976e+13
7.675099e+03, 2.546807e+13
7.682774e+03, 2.719445e+13
7.690457e+03, 2.824275e+13
7.698147e+03, 2.276885e+13
7.705845e+03, 2.563213e+13
7.713551e+03, 2.817242e+13
7.721265e+03, 2.935707e+13
7.728986e+03, 3.105016e+13
7.736715e+03, 3.291200e+13
7.744452e+03, 3.162228e+13
7.752196e+03, 2.752660e+13
7.759948e+03, 2.869058e+13
7.767708e+03, 2.939584e+13
7.775476e+03, 3.082484e+13
7.783252e+03, 2.957451e+13
7.791035e+03, 2.980134e+13
7.798826e+03, 3.067476e+13
7.806625e+03, 3.294029e+13
7.814431e+03, 3.416156e+13
7.822246e+03, 3.317746e+13
7.830068e+03, 3.123545e+13
7.837898e+03, 3.153155e+13
7.845736e+03, 3.173881e+13
7.853582e+03, 3.353073e+13
7.861435e+03, 3.419102e+13
7.869297e+03, 3.401219e+13
7.877166e+03, 3.557175e+13
7.885043e+03, 3.665201e+13
7.892928e+03, 3.736635e+13
7.900821e+03, 3.766550e+13
7.908722e+03, 3.648922e+13
7.916631e+03, 3.587712e+13
7.924547e+03, 3.695231e+13
7.932472e+03, 3.814857e+13
7.940404e+03, 3.799096e+13
7.948345e+03, 3.801431e+13
7.956293e+03, 3.987982e+13
7.964249e+03, 4.081397e+13
7.972214e+03, 4.155916e+13
7.980186e+03, 4.109917e+13
7.988166e+03, 4.074589e+13
7.996154e+03, 4.138329e+13
8.004150e+03, 4.154843e+13
8.012154e+03, 4.255388e+13
8.020167e+03, 4.326788e+13
8.028187e+03, 4.290949e+13
8.036215e+03, 4.384021e+13
8.044251e+03, 4.407487e+13
8.052295e+03, 4.375250e+13
8.060348e+03, 4.492295e+13
8.068408e+03, 4.423644e+13
8.076476e+03, 4.442490e+13
8.084553e+03, 4.553912e+13
8.092637e+03, 4.588269e+13
8.100730e+03, 4.668834e+13
8.108831e+03, 4.687363e+13
8.116940e+03, 4.535441e+13
8.125057e+03, 4.581518e+13
8.133182e+03, 4.792288e+13
8.141315e+03, 4.783952e+13
8.149456e+03, 4.850446e+13
8.157606e+03, 4.842203e+13
8.165763e+03, 4.744512e+13
8.173929e+03, 4.790340e+13
8.182103e+03, 3.922370e+13
8.190285e+03, 4.141460e+13
8.198475e+03, 3.278195e+13
8.206674e+03, 4.306067e+13
8.214880e+03, 4.488225e+13
8.223095e+03, 4.498326e+13
8.231318e+03, 4.635496e+13
8.239550e+03, 4.675042e+13
8.247789e+03, 4.682090e+13
8.256037e+03, 4.583861e+13
8.264293e+03, 4.701908e+13
8.272557e+03, 4.504352e+13
8.280830e+03, 4.476402e+13
8.289111e+03, 4.436145e+13
8.297400e+03, 4.456194e+13
8.305697e+03, 4.380150e+13
8.314003e+03, 4.468046e+13
8.322317e+03, 4.514277e+13
8.330639e+03, 4.335212e+13
8.338970e+03, 4.431609e+13
8.347309e+03, 4.398230e+13
8.355656e+03, 4.370320e+13
8.364012e+03, 4.347966e+13
8.372376e+03, 4.462896e+13
8.380748e+03, 4.255830e+13
8.389129e+03, 4.044193e+13
8.397518e+03, 4.355219e+13
8.405916e+03, 4.492674e+13
8.414322e+03, 4.379234e+13
8.422736e+03, 4.364372e+13
8.431159e+03, 4.234199e+13
8.439590e+03, 3.650185e+13
8.448029e+03, 3.689458e+13
8.456477e+03, 3.411898e+13
8.464934e+03, 3.526541e+13
8.473399e+03, 3.374908e+13
8.481872e+03, 3.629781e+13
8.490354e+03, 3.714531e+13
8.498845e+03, 3.612812e+13
8.507343e+03, 3.671024e+13
8.515851e+03, 3.601183e+13
8.524367e+03, 3.665982e+13
8.532891e+03, 3.711606e+13
8.541424e+03, 3.572165e+13
8.549965e+03, 3.866486e+13
8.558515e+03, 3.974956e+13
8.567074e+03, 4.032419e+13
8.575641e+03, 4.037479e+13
8.584216e+03, 4.071192e+13
8.592801e+03, 4.105081e+13
8.601393e+03, 4.160519e+13
8.609995e+03, 4.175074e+13
8.618605e+03, 4.269854e+13
8.627223e+03, 4.345039e+13
8.635851e+03, 4.347533e+13
8.644486e+03, 4.408780e+13
8.653131e+03, 4.381618e+13
8.661784e+03, 4.052072e+13
8.670446e+03, 4.434778e+13
8.679116e+03, 4.341940e+13
8.687795e+03, 4.191770e+13
8.696483e+03, 4.315164e+13
8.705180e+03, 4.415584e+13
8.713885e+03, 4.404123e+13
8.722599e+03, 4.435355e+13
8.731321e+03, 4.586099e+13
8.740053e+03, 4.403762e+13
8.748793e+03, 4.569643e+13
8.757542e+03, 4.563722e+13
8.766299e+03, 4.578700e+13
8.775065e+03, 4.720661e+13
8.783840e+03, 4.668723e+13
8.792624e+03, 4.754252e+13
8.801417e+03, 4.642451e+13
8.810218e+03, 4.521517e+13
8.819029e+03, 4.888070e+13
8.827848e+03, 4.488168e+13
8.836675e+03, 4.869913e+13
8.845512e+03, 4.831639e+13
8.854358e+03, 4.905267e+13
8.863212e+03, 4.051237e+13
8.872075e+03, 3.884925e+13
8.880947e+03, 3.986070e+13
8.889828e+03, 4.056008e+13
8.898718e+03, 4.129005e+13
8.907617e+03, 4.313003e+13
8.916524e+03, 4.321607e+13
8.925441e+03, 4.360025e+13
8.934366e+03, 4.314609e+13
8.943301e+03, 4.203922e+13
8.952244e+03, 4.199855e+13
8.961196e+03, 4.275283e+13
8.970157e+03, 4.311917e+13
8.979128e+03, 4.322464e+13
8.988107e+03, 4.492604e+13
8.997095e+03, 4.542657e+13
9.006092e+03, 4.467037e+13
9.015098e+03, 4.382924e+13
9.024113e+03, 4.366671e+13
9.033137e+03, 4.435067e+13
9.042170e+03, 4.564164e+13
9.051213e+03, 4.564304e+13
9.060264e+03, 4.485824e+13
9.069324e+03, 4.592650e+13
9.078393e+03, 4.646624e+13
9.087472e+03, 4.475468e+13
9.096559e+03, 4.661748e+13
9.105656e+03, 4.680497e+13
9.114761e+03, 4.798719e+13
9.123876e+03, 4.751167e+13
9.133000e+03, 4.806427e+13
9.142133e+03, 4.780384e+13
9.151275e+03, 4.766540e+13
9.160426e+03, 4.883291e+13
9.169587e+03, 4.904757e+13
9.178757e+03, 4.782190e+13
9.187935e+03, 4.974152e+13
9.197123e+03, 4.941185e+13
9.206320e+03, 4.838033e+13
9.215527e+03, 4.806549e+13
9.224742e+03, 4.635313e+13
9.233967e+03, 4.530080e+13
9.243201e+03, 4.715526e+13
9.252444e+03, 4.591970e+13
9.261697e+03, 4.643824e+13
9.270958e+03, 4.705622e+13
9.280229e+03, 4.587139e+13
9.289509e+03, 4.591003e+13
9.298799e+03, 4.452981e+13
9.308098e+03, 4.514877e+13
9.317406e+03, 4.534102e+13
9.326723e+03, 4.472140e+13
9.336050e+03, 4.581597e+13
9.345386e+03, 4.610689e+13
9.354731e+03, 4.515597e+13
9.364086e+03, 4.484105e+13
9.373450e+03, 4.548684e+13
9.382824e+03, 4.544891e+13
9.392206e+03, 4.521274e+13
9.401599e+03, 4.512285e+13
9.411000e+03, 4.637504e+13
9.420411e+03, 4.603959e+13
9.429832e+03, 4.677012e+13
9.439262e+03, 4.644117e+13
9.448701e+03, 4.569286e+13
9.458149e+03, 4.673372e+13
9.467608e+03, 4.589195e+13
9.477075e+03, 4.756606e+13
9.486552e+03, 4.719848e+13
9.496039e+03, 4.719865e+13
9.505535e+03, 4.743057e+13
9.515040e+03, 4.694235e+13
9.524555e+03, 4.797226e+13
9.534080e+03, 4.775504e+13
9.543614e+03, 4.739535e+13
9.553158e+03, 4.688887e+13
9.562711e+03, 4.778242e+13
9.572274e+03, 4.820055e+13
9.581846e+03, 4.863845e+13
9.591428e+03, 4.859869e+13
9.601019e+03, 4.594727e+13
9.610620e+03, 4.834588e+13
9.620231e+03, 4.869389e+13
9.629851e+03, 4.886658e+13
9.639481e+03, 4.528133e+13
9.649120e+03, 4.689647e+13
9.658769e+03, 4.816208e+13
9.668428e+03, 4.835092e+13
9.678097e+03, 4.614984e+13
9.687775e+03, 4.726062e+13
9.697463e+03, 4.907392e+13
9.707160e+03, 4.626196e+13
9.716867e+03, 4.820343e+13
9.726584e+03, 4.594616e+13
9.736311e+03, 4.739865e+13
9.746047e+03, 4.561664e+13
9.755793e+03, 4.762464e+13
9.765549e+03, 4.821533e+13
9.775314e+03, 4.618895e+13
9.785090e+03, 4.530412e+13
9.794875e+03, 4.645322e+13
9.804670e+03, 4.825487e+13
9.814474e+03, 4.727882e+13
9.824289e+03, 4.727930e+13
9.834113e+03, 4.654465e+13
9.843947e+03, 4.712314e+13
9.853791e+03, 4.781676e+13
9.863645e+03, 4.749763e+13
9.873509e+03, 4.761099e+13
9.883382e+03, 4.859870e+13
9.893265e+03, 4.776341e+13
9.903159e+03, 3.606377e+13
9.913062e+03, 3.150247e+13
9.922975e+03, 3.308662e+13
9.932898e+03, 3.538558e+13
9.942831e+03, 3.915412e+13
9.952774e+03, 4.130153e+13
9.962726e+03, 4.045411e+13
9.972689e+03, 3.903789e+13
9.982662e+03, 3.973796e+13
9.992644e+03, 3.967286e+13
1.000264e+04, 3.999417e+13
1.001264e+04, 4.026090e+13
1.002265e+04, 4.184551e+13
1.003268e+04, 4.280044e+13
1.004271e+04, 4.126266e+13
1.005275e+04, 3.910110e+13
1.006280e+04, 3.772042e+13
1.007287e+04, 4.242339e+13
1.008294e+04, 4.404477e+13
1.009302e+04, 4.092425e+13
1.010311e+04, 4.464787e+13
1.011322e+04, 4.163679e+13
1.012333e+04, 4.250709e+13
1.013345e+04, 4.249811e+13
1.014359e+04, 4.196115e+13
1.015373e+04, 4.243409e+13
1.016389e+04, 3.997117e+13
1.017405e+04, 4.364541e+13
1.018422e+04, 4.052974e+13
1.019441e+04, 4.246329e+13
1.020460e+04, 4.225319e+13
1.021481e+04, 4.376633e+13
1.022502e+04, 4.138589e+13
1.023525e+04, 4.294242e+13
1.024548e+04, 4.514934e+13
1.025573e+04, 4.138277e+13
1.026598e+04, 3.882450e+13
1.027625e+04, 4.048066e+13
1.028652e+04, 4.015362e+13
1.029681e+04, 4.107500e+13
1.030711e+04, 4.174639e+13
1.031742e+04, 4.276647e+13
1.032773e+04, 4.269832e+13
1.033806e+04, 4.099591e+13
1.034840e+04, 3.954110e+13
1.035875e+04, 4.277841e+13
1.036911e+04, 4.425366e+13
1.037947e+04, 4.249261e+13
1.038985e+04, 4.230152e+13
1.040024e+04, 4.204195e+13
1.041064e+04, 4.512197e+13
1.042106e+04, 4.286548e+13
1.043148e+04, 3.982651e+13
1.044191e+04, 4.475435e+13
1.045235e+04, 4.524082e+13
1.046280e+04, 4.590735e+13
1.047326e+04, 3.961689e+13
1.048374e+04, 4.315858e+13
1.049422e+04, 4.533074e+13
1.050472e+04, 4.546157e+13
1.051522e+04, 4.177723e+13
1.052574e+04, 4.151313e+13
1.053626e+04, 4.639277e+13
1.054680e+04, 4.369204e+13
1.055734e+04, 4.292181e+13
1.056790e+04, 4.240508e+13
1.057847e+04, 4.482839e+13
1.058905e+04, 4.469672e+13
1.059964e+04, 4.599513e+13
1.061024e+04, 4.306982e+13
1.062085e+04, 4.309261e+13
1.063147e+04, 4.530046e+13
1.064210e+04, 4.580606e+13
1.065274e+04, 4.483527e+13
1.066339e+04, 4.368209e+13
1.067406e+04, 4.273215e+13
1.068473e+04, 4.396551e+13
1.069542e+04, 4.515538e+13
1.070611e+04, 4.476075e+13
1.071682e+04, 4.593610e+13
1.072753e+04, 4.388007e+13
1.073826e+04, 4.515315e+13
1.074900e+04, 4.502591e+13
1.075975e+04, 4.584325e+13
1.077051e+04, 4.584045e+13
1.078128e+04, 4.582614e+13
1.079206e+04, 4.521661e+13
1.080285e+04, 4.546207e+13
1.081366e+04, 4.457381e+13
1.082447e+04, 4.595833e+13
1.083529e+04, 4.538531e+13
1.084613e+04, 4.568929e+13
1.085698e+04, 4.510890e+13
1.086783e+04, 4.555122e+13
1.087870e+04, 4.648443e+13
1.088958e+04, 4.521101e+13
1.090047e+04, 4.633600e+13
1.091137e+04, 4.512650e+13
1.092228e+04, 4.529171e+13
1.093320e+04, 4.574799e+13
1.094414e+04, 4.639371e+13
1.095508e+04, 4.559971e+13
1.096604e+04, 4.545682e+13
1.097700e+04, 4.455853e+13
1.098798e+04, 4.513939e+13
1.099897e+04, 4.547743e+13
1.100997e+04, 4.562953e+13
1.102098e+04, 4.420223e+13
1.103200e+04, 4.471329e+13
1.104303e+04, 4.470613e+13
1.105407e+04, 4.392908e+13
1.106513e+04, 4.443426e+13
1.107619e+04, 4.489706e+13
1.108727e+04, 4.451199e+13
1.109835e+04, 4.427322e+13
1.110945e+04, 4.444450e+13
1.112056e+04, 4.375303e+13
1.113168e+04, 4.459159e+13
1.114281e+04, 4.525393e+13
1.115396e+04, 4.420249e+13
1.116511e+04, 4.485261e+13
1.117628e+04, 4.439857e+13
1.118745e+04, 4.493716e+13
1.119864e+04, 4.409595e+13
1.120984e+04, 4.430003e+13
1.122105e+04, 4.426772e+13
1.123227e+04, 4.503472e+13
1.124350e+04, 4.462409e+13
1.125474e+04, 4.296559e+13
1.126600e+04, 4.508071e+13
1.127727e+04, 4.405923e+13
1.128854e+04, 4.450433e+13
1.129983e+04, 4.394978e+13
1.131113e+04, 4.486313e+13
1.132244e+04, 4.482677e+13
1.133376e+04, 4.456707e+13
1.134510e+04, 4.437845e+13
1.135644e+04, 4.398052e+13
1.136780e+04, 4.403262e+13
1.137917e+04, 3.985522e+13
1.139055e+04, 4.156852e+13
1.140194e+04, 3.851597e+13
1.141334e+04, 4.163591e+13
1.142475e+04, 4.341661e+13
1.143618e+04, 4.422016e+13
1.144761e+04, 4.353368e+13
1.145906e+04, 4.388104e+13
1.147052e+04, 4.411859e+13
1.148199e+04, 4.365327e+13
1.149347e+04, 4.419368e+13
1.150497e+04, 4.443123e+13
1.151647e+04, 4.450351e+13
1.152799e+04, 4.443878e+13
1.153952e+04, 4.403786e+13
1.155106e+04, 4.380471e+13
1.156261e+04, 4.392422e+13
1.157417e+04, 4.409500e+13
1.158574e+04, 4.415686e+13
1.159733e+04, 4.335714e+13
1.160893e+04, 4.159912e+13
1.162054e+04, 4.404113e+13
1.163216e+04, 4.400522e+13
1.164379e+04, 4.278217e+13
1.165543e+04, 4.359407e+13
1.166709e+04, 4.399905e+13
1.167875e+04, 4.376540e+13
1.169043e+04, 4.035493e+13
1.170212e+04, 4.365382e+13
1.171383e+04, 4.359336e+13
1.172554e+04, 4.405586e+13
1.173726e+04, 4.329483e+13
1.174900e+04, 4.346488e+13
1.176075e+04, 4.342982e+13
1.177251e+04, 3.817085e+13
1.178428e+04, 4.189670e+13
1.179607e+04, 4.285117e+13
1.180786e+04, 4.331081e+13
1.181967e+04, 4.339333e+13
1.183149e+04, 4.157169e+13
1.184332e+04, 4.334561e+13
1.185517e+04, 4.298134e+13
1.186702e+04, 4.320765e+13
1.187889e+04, 4.320697e+13
1.189077e+04, 3.963889e+13
1.190266e+04, 4.327809e+13
1.191456e+04, 4.280938e+13
1.192648e+04, 4.322152e+13
1.193840e+04, 4.249780e+13
1.195034e+04, 4.186231e+13
1.196229e+04, 4.160687e+13
1.197425e+04, 3.927244e+13
1.198623e+04, 4.206600e+13
1.199821e+04, 4.166654e+13
1.201021e+04, 4.188262e+13
1.202222e+04, 4.209592e+13
1.203424e+04, 4.170220e+13
1.204628e+04, 4.206492e+13
1.205833e+04, 4.266631e+13
1.207038e+04, 4.182748e+13
1.208245e+04, 4.195303e+13
1.209454e+04, 4.171543e+13
1.210663e+04, 4.171101e+13
1.211874e+04, 4.154983e+13
1.213086e+04, 4.185242e+13
1.214299e+04, 4.233762e+13
1.215513e+04, 4.232618e+13
1.216729e+04, 4.202875e+13
1.217945e+04, 4.231465e+13
1.219163e+04, 4.209854e+13
1.220382e+04, 4.141331e+13
1.221603e+04, 4.178312e+13
1.222824e+04, 4.197509e+13
1.224047e+04, 4.160702e+13
1.225271e+04, 4.210154e+13
1.226497e+04, 4.210985e+13
1.227723e+04, 4.182201e+13
1.228951e+04, 4.194087e+13
1.230180e+04, 4.175731e+13
1.231410e+04, 4.160500e+13
1.232641e+04, 4.124991e+13
1.233874e+04, 4.154519e+13
1.235108e+04, 4.166477e+13
1.236343e+04, 4.128273e+13
1.237579e+04, 4.164121e+13
1.238817e+04, 4.101453e+13
1.240056e+04, 4.121166e+13
1.241296e+04, 4.006152e+13
1.242537e+04, 3.976350e+13
1.243780e+04, 3.847493e+13
1.245023e+04, 4.084967e+13
1.246268e+04, 4.062655e+13
1.247515e+04, 4.036935e+13
1.248762e+04, 4.090184e+13
1.250011e+04, 4.031172e+13
1.251261e+04, 4.042640e+13
1.252512e+04, 3.733401e+13
1.253765e+04, 4.071599e+13
1.255018e+04, 4.015237e+13
1.256273e+04, 4.029976e+13
1.257530e+04, 4.033076e+13
1.258787e+04, 4.045759e+13
1.260046e+04, 4.010802e+13
1.261306e+04, 4.043577e+13
1.262567e+04, 4.022140e+13
1.263830e+04, 3.961177e+13
1.265094e+04, 4.042593e+13
1.266359e+04, 4.016228e+13
1.267625e+04, 3.930171e+13
1.268893e+04, 3.961176e+13
1.270162e+04, 4.007322e+13
1.271432e+04, 4.010618e+13
1.272703e+04, 4.055327e+13
1.273976e+04, 3.953414e+13
1.275250e+04, 3.977401e+13
1.276525e+04, 4.016074e+13
1.277802e+04, 3.993929e+13
1.279080e+04, 4.019141e+13
1.280359e+04, 3.995450e+13
1.281639e+04, 3.938182e+13
1.282921e+04, 3.812004e+13
1.284204e+04, 3.978386e+13
1.285488e+04, 3.906443e+13
1.286773e+04, 3.922475e+13
1.288060e+04, 3.894382e+13
1.289348e+04, 3.918523e+13
1.290637e+04, 3.790283e+13
1.291928e+04, 3.875356e+13
1.293220e+04, 3.885081e+13
1.294513e+04, 3.879214e+13
1.295808e+04, 3.955802e+13
1.297104e+04, 3.931117e+13
1.298401e+04, 3.908207e+13
1.299699e+04, 3.886716e+13
1.300999e+04, 3.874286e+13
1.302300e+04, 3.945835e+13
1.303602e+04, 3.869055e+13
1.304906e+04, 3.915306e+13
1.306211e+04, 3.899600e+13
1.307517e+04, 3.860292e+13
1.308824e+04, 3.857357e+13
1.310133e+04, 3.869170e+13
1.311443e+04, 3.875522e+13
1.312755e+04, 3.568683e+13
1.314067e+04, 3.773392e+13
1.315382e+04, 3.635554e+13
1.316697e+04, 3.876642e+13
1.318014e+04, 3.871369e+13
1.319332e+04, 3.892022e+13
1.320651e+04, 3.808754e+13
1.321972e+04, 3.796290e+13
1.323294e+04, 3.833549e+13
1.324617e+04, 3.820837e+13
1.325941e+04, 3.794487e+13
1.327267e+04, 3.746273e+13
1.328595e+04, 3.757330e+13
1.329923e+04, 3.698179e+13
1.331253e+04, 3.696131e+13
1.332584e+04, 3.530411e+13
1.333917e+04, 3.654030e+13
1.335251e+04, 3.317241e+13
1.336586e+04, 3.456004e+13
1.337923e+04, 3.395183e+13
1.339261e+04, 3.509967e+13
1.340600e+04, 3.472323e+13
1.341941e+04, 3.418578e+13
1.343283e+04, 3.379860e+13
1.344626e+04, 3.398945e+13
1.345970e+04, 3.477244e+13
1.347316e+04, 3.391402e+13
1.348664e+04, 3.446836e+13
1.350012e+04, 3.381084e+13
1.351362e+04, 3.417957e+13
1.352714e+04, 3.433772e+13
1.354066e+04, 3.356815e+13
1.355421e+04, 3.381999e+13
1.356776e+04, 3.454805e+13
1.358133e+04, 3.375328e+13
1.359491e+04, 3.399435e+13
1.360850e+04, 3.398670e+13
1.362211e+04, 3.302576e+13
1.363573e+04, 3.354612e+13
1.364937e+04, 3.342498e+13
1.366302e+04, 3.400972e+13
1.367668e+04, 3.417135e+13
1.369036e+04, 3.359168e+13
1.370405e+04, 3.406727e+13
1.371775e+04, 3.395252e+13
1.373147e+04, 3.395425e+13
1.374520e+04, 3.408086e+13
1.375895e+04, 3.425230e+13
1.377271e+04, 3.413331e+13
1.378648e+04, 3.374200e+13
1.380027e+04, 3.428074e+13
1.381407e+04, 3.439243e+13
1.382788e+04, 3.331026e+13
1.384171e+04, 3.403519e+13
1.385555e+04, 3.341796e+13
1.386941e+04, 3.357852e+13
1.388327e+04, 3.273416e+13
1.389716e+04, 3.310777e+13
1.391106e+04, 3.055993e+13
1.392497e+04, 3.121223e+13
1.393889e+04, 3.149222e+13
1.395283e+04, 3.185112e+13
1.396678e+04, 3.241632e+13
1.398075e+04, 3.094535e+13
1.399473e+04, 3.151824e+13
1.400873e+04, 3.143061e+13
1.402273e+04, 3.207586e+13
1.403676e+04, 3.253501e+13
1.405079e+04, 3.148712e+13
1.406484e+04, 3.197010e+13
1.407891e+04, 3.160870e+13
1.409299e+04, 3.126395e+13
1.410708e+04, 3.134604e+13
1.412119e+04, 3.047014e+13
1.413531e+04, 3.108334e+13
1.414944e+04, 3.110880e+13
1.416359e+04, 3.096682e+13
1.417776e+04, 3.017796e+13
1.419194e+04, 3.027725e+13
1.420613e+04, 3.139820e+13
1.422033e+04, 3.067352e+13
1.423455e+04, 3.005973e+13
1.424879e+04, 3.083577e+13
1.426304e+04, 3.018395e+13
1.427730e+04, 3.051133e+13
1.429158e+04, 2.985002e+13
1.430587e+04, 3.108020e+13
1.432018e+04, 3.064527e+13
1.433450e+04, 3.025378e+13
1.434883e+04, 3.014682e+13
1.436318e+04, 3.002423e+13
1.437754e+04, 3.055292e+13
1.439192e+04, 2.995557e+13
1.440631e+04, 3.009002e+13
1.442072e+04, 3.024880e+13
1.443514e+04, 3.105111e+13
1.444957e+04, 2.966406e+13
1.446402e+04, 3.037452e+13
1.447849e+04, 3.035419e+13
1.449297e+04, 3.050325e+13
1.450746e+04, 2.946669e+13
1.452197e+04, 3.064467e+13
1.453649e+04, 3.018894e+13
1.455102e+04, 3.063751e+13
1.456558e+04, 2.874850e+13
1.458014e+04, 3.057194e+13
1.459472e+04, 3.056134e+13
1.460932e+04, 2.825255e+13
1.462393e+04, 2.809380e+13
1.463855e+04, 2.945384e+13
1.465319e+04, 2.960634e+13
1.466784e+04, 2.900780e+13
1.468251e+04, 2.839011e+13
1.469719e+04, 2.821467e+13
1.471189e+04, 2.897325e+13
1.472660e+04, 2.967701e+13
1.474133e+04, 2.885245e+13
1.475607e+04, 2.886691e+13
1.477082e+04, 2.837756e+13
1.478560e+04, 2.893875e+13
1.480038e+04, 2.811551e+13
1.481518e+04, 2.871250e+13
1.483000e+04, 2.933674e+13
1.484483e+04, 2.897336e+13
1.485967e+04, 2.913100e+13
1.487453e+04, 2.900583e+13
1.488941e+04, 2.784726e+13
1.490429e+04, 2.840392e+13
1.491920e+04, 2.937766e+13
1.493412e+04, 2.904835e+13
1.494905e+04, 2.900453e+13
1.496400e+04, 2.920216e+13
1.497897e+04, 2.936391e+13
1.499394e+04, 2.924405e+13
1.500894e+04, 2.824794e+13
1.502395e+04, 2.720916e+13
1.503897e+04, 2.859853e+13
1.505401e+04, 2.826568e+13
1.506906e+04, 2.901126e+13
1.508413e+04, 2.854275e+13
1.509922e+04, 2.924793e+13
1.511432e+04, 2.891626e+13
1.512943e+04, 2.836323e+13
1.514456e+04, 2.859612e+13
1.515970e+04, 2.846350e+13
1.517486e+04, 2.731309e+13
1.519004e+04, 2.919079e+13
1.520523e+04, 2.889572e+13
1.522043e+04, 2.935065e+13
1.523566e+04, 2.911909e+13
1.525089e+04, 2.870323e+13
1.526614e+04, 2.789524e+13
1.528141e+04, 2.779600e+13
1.529669e+04, 2.914091e+13
1.531199e+04, 2.911713e+13
1.532730e+04, 2.764100e+13
1.534263e+04, 2.859860e+13
1.535797e+04, 2.909365e+13
1.537333e+04, 2.794814e+13
1.538870e+04, 2.797677e+13
1.540409e+04, 2.736474e+13
1.541949e+04, 2.748144e+13
1.543491e+04, 2.758908e+13
1.545035e+04, 2.893510e+13
1.546580e+04, 2.839967e+13
1.548126e+04, 2.822057e+13
1.549674e+04, 2.844670e+13
1.551224e+04, 2.774276e+13
1.552775e+04, 2.906312e+13
1.554328e+04, 2.717886e+13
1.555882e+04, 2.786706e+13
1.557438e+04, 2.736370e+13
1.558996e+04, 2.848712e+13
1.560555e+04, 2.827351e+13
1.562115e+04, 2.848781e+13
1.563677e+04, 2.826028e+13
1.565241e+04, 2.736591e+13
1.566806e+04, 2.875099e+13
1.568373e+04, 2.871189e+13
1.569941e+04, 2.820391e+13
1.571511e+04, 2.800272e+13
1.573083e+04, 2.737875e+13
1.574656e+04, 2.837716e+13
1.576231e+04, 2.756254e+13
1.577807e+04, 2.755068e+13
1.579385e+04, 2.880664e+13
1.580964e+04, 2.866453e+13
1.582545e+04, 2.853866e+13
1.584128e+04, 2.790654e+13
1.585712e+04, 2.886754e+13
1.587297e+04, 2.860897e+13
1.588885e+04, 2.758795e+13
1.590474e+04, 2.734380e+13
1.592064e+04, 2.790413e+13
1.593656e+04, 2.847506e+13
1.595250e+04, 2.883286e+13
1.596845e+04, 2.870439e+13
1.598442e+04, 2.860848e+13
1.600040e+04, 2.853602e+13
1.601640e+04, 2.855410e+13
1.603242e+04, 2.863390e+13
1.604845e+04, 2.771541e+13
1.606450e+04, 2.699182e+13
1.608057e+04, 2.755617e+13
1.609665e+04, 2.868072e+13
1.611274e+04, 2.843121e+13
1.612886e+04, 2.830121e+13
1.614498e+04, 2.795143e+13
1.616113e+04, 2.678439e+13
1.617729e+04, 2.870880e+13
1.619347e+04, 2.662442e+13
1.620966e+04, 2.672794e+13
1.622587e+04, 2.749307e+13
1.624210e+04, 2.788549e+13
1.625834e+04, 2.658745e+13
1.627460e+04, 2.815292e+13
1.629087e+04, 2.857946e+13
1.630716e+04, 2.809931e+13
1.632347e+04, 2.790577e+13
1.633979e+04, 2.826739e+13
1.635613e+04, 2.709898e+13
1.637249e+04, 2.741932e+13
1.638886e+04, 2.791046e+13
1.640525e+04, 2.805021e+13
1.642166e+04, 2.810331e+13
1.643808e+04, 2.821983e+13
1.645452e+04, 2.636485e+13
1.647097e+04, 2.782679e+13
1.648744e+04, 2.809967e+13
1.650393e+04, 2.815892e+13
1.652043e+04, 2.779242e+13
1.653695e+04, 2.684483e+13
1.655349e+04, 2.828341e+13
1.657004e+04, 2.829782e+13
1.658661e+04, 2.759767e+13
1.660320e+04, 2.770280e+13
1.661980e+04, 2.771252e+13
1.663642e+04, 2.795482e+13
1.665306e+04, 2.690221e+13
1.666971e+04, 2.735049e+13
1.668638e+04, 2.771834e+13
1.670307e+04, 2.737593e+13
1.671977e+04, 2.557180e+13
1.673649e+04, 2.710260e+13
1.675323e+04, 2.572443e+13
1.676998e+04, 2.688136e+13
1.678675e+04, 2.773766e+13
1.680354e+04, 2.751092e+13
1.682034e+04, 2.763176e+13
1.683716e+04, 2.744616e+13
1.685400e+04, 2.742033e+13
1.687085e+04, 2.637821e+13
1.688772e+04, 2.610088e+13
1.690461e+04, 2.539769e+13
1.692152e+04, 2.653466e+13
1.693844e+04, 2.706952e+13
1.695538e+04, 2.661548e+13
1.697233e+04, 2.653008e+13
1.698930e+04, 2.668447e+13
1.700629e+04, 2.623798e+13
1.702330e+04, 2.648983e+13
1.704032e+04, 2.628358e+13
1.705736e+04, 2.557366e+13
1.707442e+04, 2.514133e+13
1.709149e+04, 2.548276e+13
1.710859e+04, 2.301467e+13
1.712569e+04, 2.527760e+13
1.714282e+04, 2.513351e+13
1.715996e+04, 2.502702e+13
1.717712e+04, 2.449070e+13
1.719430e+04, 2.416417e+13
1.721149e+04, 2.471497e+13
1.722871e+04, 2.396221e+13
1.724593e+04, 2.418988e+13
1.726318e+04, 2.404105e+13
1.728044e+04, 2.448597e+13
1.729772e+04, 2.425478e+13
1.731502e+04, 2.322304e+13
1.733234e+04, 2.362278e+13
1.734967e+04, 2.268939e+13
1.736702e+04, 2.373044e+13
1.738439e+04, 2.350286e+13
1.740177e+04, 2.301508e+13
1.741917e+04, 2.290270e+13
1.743659e+04, 2.284799e+13
1.745403e+04, 2.320520e+13
1.747148e+04, 2.271088e+13
1.748895e+04, 2.296607e+13
1.750644e+04, 2.209447e+13
1.752395e+04, 2.261157e+13
1.754147e+04, 2.177916e+13
1.755901e+04, 2.114517e+13
1.757657e+04, 2.202658e+13
1.759415e+04, 2.150463e+13
1.761174e+04, 2.145242e+13
1.762936e+04, 2.111772e+13
1.764699e+04, 2.157659e+13
1.766463e+04, 2.159764e+13
1.768230e+04, 2.041970e+13
1.769998e+04, 2.163340e+13
1.771768e+04, 2.043465e+13
1.773540e+04, 2.109874e+13
1.775313e+04, 2.052105e+13
1.777089e+04, 1.994491e+13
1.778866e+04, 2.002405e+13
1.780644e+04, 2.033139e+13
1.782425e+04, 1.937175e+13
1.784208e+04, 2.047103e+13
1.785992e+04, 1.940214e+13
1.787778e+04, 1.931336e+13
1.789566e+04, 2.020082e+13
1.791355e+04, 1.914640e+13
1.793146e+04, 1.968719e+13
1.794940e+04, 1.936991e+13
1.796735e+04, 1.905648e+13
1.798531e+04, 1.974619e+13
1.800330e+04, 1.833203e+13
1.802130e+04, 1.868797e+13
1.803932e+04, 1.879733e+13
1.805736e+04, 1.857200e+13
1.807542e+04, 1.866477e+13
1.809349e+04, 1.917792e+13
1.811159e+04, 1.800229e+13
1.812970e+04, 1.834802e+13
1.814783e+04, 1.900083e+13
1.816598e+04, 1.882224e+13
1.818414e+04, 1.817483e+13
1.820233e+04, 1.782258e+13
1.822053e+04, 1.757538e+13
1.823875e+04, 1.960989e+13
1.825699e+04, 1.754030e+13
1.827525e+04, 1.793922e+13
1.829352e+04, 1.839884e+13
1.831181e+04, 1.807903e+13
1.833013e+04, 1.770880e+13
1.834846e+04, 1.804481e+13
1.836681e+04, 1.804969e+13
1.838517e+04, 1.771661e+13
1.840356e+04, 1.767605e+13
1.842196e+04, 1.740091e+13
1.844038e+04, 1.672022e+13
1.845882e+04, 1.701373e+13
1.847728e+04, 1.548681e+13
1.849576e+04, 1.669348e+13
1.851425e+04, 1.755251e+13
1.853277e+04, 1.658726e+13
1.855130e+04, 1.722122e+13
1.856985e+04, 1.570148e+13
1.858842e+04, 1.556433e+13
1.860701e+04, 1.558172e+13
1.862562e+04, 1.664847e+13
1.864424e+04, 1.616708e+13
1.866289e+04, 1.666974e+13
1.868155e+04, 1.651007e+13
1.870023e+04, 1.705823e+13
1.871893e+04, 1.623877e+13
1.873765e+04, 1.566787e+13
1.875639e+04, 1.648789e+13
1.877515e+04, 1.617300e+13
1.879392e+04, 1.581456e+13
1.881272e+04, 1.631325e+13
1.883153e+04, 1.731455e+13
1.885036e+04, 1.595017e+13
1.886921e+04, 1.647191e+13
1.888808e+04, 1.638606e+13
1.890697e+04, 1.631430e+13
1.892587e+04, 1.533660e+13
1.894480e+04, 1.614634e+13
1.896374e+04, 1.658424e+13
1.898271e+04, 1.593251e+13
1.900169e+04, 1.667801e+13
1.902069e+04, 1.615772e+13
1.903971e+04, 1.617321e+13
1.905875e+04, 1.579103e+13
1.907781e+04, 1.625301e+13
1.909689e+04, 1.608515e+13
1.911599e+04, 1.556601e+13
1.913510e+04, 1.648401e+13
1.915424e+04, 1.614355e+13
1.917339e+04, 1.575809e+13
1.919257e+04, 1.612718e+13
1.921176e+04, 1.588532e+13
1.923097e+04, 1.570976e+13
1.925020e+04, 1.577081e+13
1.926945e+04, 1.561375e+13
1.928872e+04, 1.553403e+13
1.930801e+04, 1.315845e+13
1.932732e+04, 1.468565e+13
1.934664e+04, 1.545718e+13
1.936599e+04, 1.568790e+13
1.938536e+04, 1.524996e+13
1.940474e+04, 1.510638e+13
1.942415e+04, 1.511819e+13
1.944357e+04, 1.402391e+13
1.946301e+04, 1.248102e+13
1.948248e+04, 1.437609e+13
1.950196e+04, 1.363881e+13
1.952146e+04, 1.394853e+13
1.954098e+04, 1.503664e+13
1.956052e+04, 1.470067e+13
1.958009e+04, 1.578407e+13
1.959967e+04, 1.495877e+13
1.961927e+04, 1.501267e+13
1.963888e+04, 1.475982e+13
1.965852e+04, 1.516880e+13
1.967818e+04, 1.511557e+13
1.969786e+04, 1.514163e+13
1.971756e+04, 1.480139e+13
1.973728e+04, 1.421596e+13
1.975701e+04, 1.351331e+13
1.977677e+04, 1.156672e+13
1.979655e+04, 1.289829e+13
1.981634e+04, 1.370404e+13
1.983616e+04, 1.407450e+13
1.985600e+04, 1.301277e+13
1.987585e+04, 1.275628e+13
1.989573e+04, 1.382150e+13
1.991562e+04, 1.329895e+13
1.993554e+04, 1.378139e+13
1.995547e+04, 1.412172e+13
1.997543e+04, 1.355315e+13
1.999541e+04, 1.394380e+13
2.001540e+04, 1.396595e+13
2.003542e+04, 1.433275e+13
2.005545e+04, 1.407301e+13
2.007551e+04, 1.428100e+13
2.009558e+04, 1.359303e+13
2.011568e+04, 1.354979e+13
2.013579e+04, 1.380008e+13
2.015593e+04, 1.383643e+13
2.017609e+04, 1.383806e+13
2.019626e+04, 1.308385e+13
2.021646e+04, 1.412765e+13
2.023667e+04, 1.384278e+13
2.025691e+04, 1.354777e+13
2.027717e+04, 1.340278e+13
2.029744e+04, 1.337280e+13
2.031774e+04, 1.372422e+13
2.033806e+04, 1.357131e+13
2.035840e+04, 1.338894e+13
2.037876e+04, 1.358254e+13
2.039914e+04, 1.337287e+13
2.041953e+04, 1.360424e+13
2.043995e+04, 1.314576e+13
2.046039e+04, 1.324471e+13
2.048085e+04, 1.330459e+13
2.050134e+04, 1.316555e+13
2.052184e+04, 1.352315e+13
2.054236e+04, 1.298080e+13
2.056290e+04, 1.320214e+13
2.058346e+04, 1.347383e+13
2.060405e+04, 1.308925e+13
2.062465e+04, 1.324200e+13
2.064528e+04, 1.272151e+13
2.066592e+04, 1.307076e+13
2.068659e+04, 1.302947e+13
2.070727e+04, 1.333463e+13
2.072798e+04, 1.281957e+13
2.074871e+04, 1.296545e+13
2.076946e+04, 1.296082e+13
2.079023e+04, 1.305187e+13
2.081102e+04, 1.288142e+13
2.083183e+04, 1.291030e+13
2.085266e+04, 1.287891e+13
2.087351e+04, 1.283551e+13
2.089439e+04, 1.262212e+13
2.091528e+04, 1.315590e+13
2.093620e+04, 1.287772e+13
2.095713e+04, 1.273641e+13
2.097809e+04, 1.283435e+13
2.099907e+04, 1.267153e+13
2.102007e+04, 1.283599e+13
2.104109e+04, 1.288182e+13
2.106213e+04, 1.282321e+13
2.108319e+04, 1.253399e+13
2.110427e+04, 1.293924e+13
2.112538e+04, 1.249308e+13
2.114650e+04, 1.286048e+13
2.116765e+04, 1.246300e+13
2.118882e+04, 1.270810e+13
2.121001e+04, 1.271211e+13
2.123122e+04, 1.271633e+13
2.125245e+04, 1.268685e+13
2.127370e+04, 1.257749e+13
2.129497e+04, 1.248134e+13
2.131627e+04, 1.267361e+13
2.133758e+04, 1.265450e+13
2.135892e+04, 1.275030e+13
2.138028e+04, 1.243047e+13
2.140166e+04, 1.248898e+13
2.142306e+04, 1.250310e+13
2.144449e+04, 1.287538e+13
2.146593e+04, 1.271208e+13
2.148740e+04, 1.245232e+13
2.150888e+04, 1.248599e+13
2.153039e+04, 1.243321e+13
2.155192e+04, 1.254157e+13
2.157347e+04, 1.259521e+13
2.159505e+04, 1.247509e+13
2.161664e+04, 1.264141e+13
2.163826e+04, 1.241237e+13
2.165990e+04, 1.251930e+13
2.168156e+04, 1.262244e+13
2.170324e+04, 1.247313e+13
2.172494e+04, 1.242863e+13
2.174667e+04, 1.246994e+13
2.176841e+04, 1.235029e+13
2.179018e+04, 1.221704e+13
2.181197e+04, 1.239171e+13
2.183378e+04, 1.222670e+13
2.185562e+04, 1.239441e+13
2.187747e+04, 1.238431e+13
2.189935e+04, 1.220662e+13
2.192125e+04, 1.231585e+13
2.194317e+04, 1.236305e+13
2.196512e+04, 1.228960e+13
2.198708e+04, 1.232455e+13
2.200907e+04, 1.226009e+13
2.203108e+04, 1.209375e+13
2.205311e+04, 1.137566e+13
2.207516e+04, 1.171410e+13
2.209724e+04, 1.146114e+13
2.211933e+04, 1.219516e+13
2.214145e+04, 1.219964e+13
2.216359e+04, 1.213839e+13
2.218576e+04, 1.216487e+13
2.220794e+04, 1.193731e+13
2.223015e+04, 1.206278e+13
2.225238e+04, 1.227125e+13
2.227463e+04, 1.191255e+13
2.229691e+04, 1.197516e+13
2.231921e+04, 1.209102e+13
2.234152e+04, 1.192900e+13
2.236387e+04, 1.198527e+13
2.238623e+04, 1.200772e+13
2.240862e+04, 1.198397e+13
2.243102e+04, 1.194106e+13
2.245346e+04, 1.195107e+13
2.247591e+04, 1.190314e+13
2.249839e+04, 1.191426e+13
2.252088e+04, 1.192705e+13
2.254340e+04, 1.181199e+13
2.256595e+04, 1.188308e+13
2.258851e+04, 1.174807e+13
2.261110e+04, 1.133843e+13
2.263371e+04, 1.113807e+13
2.265635e+04, 1.106219e+13
2.267900e+04, 1.167436e+13
2.270168e+04, 1.161716e+13
2.272438e+04, 1.161643e+13
2.274711e+04, 1.166608e+13
2.276986e+04, 1.166128e+13
2.279263e+04, 1.152340e+13
2.281542e+04, 1.153838e+13
2.283823e+04, 1.134989e+13
2.286107e+04, 1.157299e+13
2.288393e+04, 1.149120e+13
2.290682e+04, 1.148913e+13
2.292972e+04, 1.067102e+13
2.295265e+04, 1.016146e+13
2.297561e+04, 1.045768e+13
2.299858e+04, 1.080486e+13
2.302158e+04, 1.075159e+13
2.304460e+04, 1.082180e+13
2.306765e+04, 1.056737e+13
2.309071e+04, 1.081773e+13
2.311380e+04, 1.068686e+13
2.313692e+04, 1.073989e+13
2.316006e+04, 1.062297e+13
2.318322e+04, 1.070274e+13
2.320640e+04, 1.065401e+13
2.322961e+04, 9.431506e+12
2.325283e+04, 9.751063e+12
2.327609e+04, 1.012186e+13
2.329936e+04, 9.974866e+12
2.332266e+04, 1.024646e+13
2.334599e+04, 9.725640e+12
2.336933e+04, 9.875127e+12
2.339270e+04, 9.538954e+12
2.341609e+04, 1.013407e+13
2.343951e+04, 9.930346e+12
2.346295e+04, 1.014862e+13
2.348641e+04, 1.004036e+13
2.350990e+04, 9.926664e+12
2.353341e+04, 8.685658e+12
2.355694e+04, 9.451610e+12
2.358050e+04, 9.415468e+12
2.360408e+04, 9.490806e+12
2.362768e+04, 9.511084e+12
2.365131e+04, 9.756616e+12
2.367496e+04, 9.513894e+12
2.369864e+04, 9.578485e+12
2.372234e+04, 9.690941e+12
2.374606e+04, 9.486289e+12
2.376980e+04, 9.581334e+12
2.379357e+04, 9.444732e+12
2.381737e+04, 9.168291e+12
2.384119e+04, 8.462752e+12
2.386503e+04, 8.727387e+12
2.388889e+04, 8.893797e+12
2.391278e+04, 8.850808e+12
2.393669e+04, 9.091072e+12
2.396063e+04, 8.763564e+12
2.398459e+04, 8.871490e+12
2.400858e+04, 8.781906e+12
2.403258e+04, 8.602037e+12
2.405662e+04, 8.670248e+12
2.408067e+04, 8.332334e+12
2.410475e+04, 8.449940e+12
2.412886e+04, 8.339702e+12
2.415299e+04, 8.109642e+12
2.417714e+04, 8.170802e+12
2.420132e+04, 8.282066e+12
2.422552e+04, 7.887734e+12
2.424974e+04, 8.264588e+12
2.427399e+04, 7.839358e+12
2.429827e+04, 8.183295e+12
2.432257e+04, 7.937465e+12
2.434689e+04, 7.816163e+12
2.437124e+04, 7.502495e+12
2.439561e+04, 8.095610e+12
2.442000e+04, 7.685080e+12
2.444442e+04, 7.545683e+12
2.446887e+04, 7.575008e+12
2.449334e+04, 7.451245e+12
2.451783e+04, 7.415816e+12
2.454235e+04, 6.980553e+12
2.456689e+04, 7.647081e+12
2.459146e+04, 7.465509e+12
2.461605e+04, 6.945102e+12
2.464066e+04, 7.510090e+12
2.466530e+04, 7.131302e+12
2.468997e+04, 7.094168e+12
2.471466e+04, 7.179824e+12
2.473937e+04, 6.751607e+12
2.476411e+04, 7.086060e+12
2.478888e+04, 6.959763e+12
2.481367e+04, 6.573950e+12
2.483848e+04, 7.186075e+12
2.486332e+04, 6.570323e+12
2.488818e+04, 6.451478e+12
2.491307e+04, 6.304732e+12
2.493798e+04, 6.599931e+12
2.496292e+04, 6.691181e+12
2.498788e+04, 6.304875e+12
2.501287e+04, 6.525561e+12
2.503788e+04, 6.253564e+12
2.506292e+04, 6.089449e+12
2.508799e+04, 6.598934e+12
2.511307e+04, 6.306114e+12
2.513819e+04, 6.198593e+12
2.516332e+04, 6.259634e+12
2.518849e+04, 6.325238e+12
2.521368e+04, 6.322043e+12
2.523889e+04, 6.119231e+12
2.526413e+04, 6.154969e+12
2.528939e+04, 6.036329e+12
2.531468e+04, 6.412369e+12
2.534000e+04, 6.104500e+12
2.536534e+04, 5.855170e+12
2.539070e+04, 6.079582e+12
2.541609e+04, 6.050108e+12
2.544151e+04, 5.967989e+12
2.546695e+04, 6.165970e+12
2.549242e+04, 5.898895e+12
2.551791e+04, 6.074705e+12
2.554343e+04, 6.060192e+12
2.556897e+04, 5.983612e+12
2.559454e+04, 6.061146e+12
2.562014e+04, 5.743805e+12
2.564576e+04, 5.996316e+12
2.567140e+04, 5.922297e+12
2.569707e+04, 5.829250e+12
2.572277e+04, 6.261155e+12
2.574849e+04, 5.749637e+12
2.577424e+04, 5.573635e+12
2.580002e+04, 6.093306e+12
2.582582e+04, 5.756552e+12
2.585164e+04, 6.090872e+12
2.587749e+04, 5.863518e+12
2.590337e+04, 5.816763e+12
2.592927e+04, 5.979307e+12
2.595520e+04, 5.731759e+12
2.598116e+04, 5.677793e+12
2.600714e+04, 5.972621e+12
2.603315e+04, 5.976331e+12
2.605918e+04, 5.916144e+12
2.608524e+04, 5.549062e+12
2.611132e+04, 6.187978e+12
2.613744e+04, 5.833967e+12
2.616357e+04, 5.951290e+12
2.618974e+04, 5.587542e+12
2.621593e+04, 5.688470e+12
2.624214e+04, 5.796124e+12
2.626838e+04, 5.697157e+12
2.629465e+04, 5.742853e+12
2.632095e+04, 5.818865e+12
2.634727e+04, 5.547671e+12
2.637362e+04, 5.798440e+12
2.639999e+04, 5.628921e+12
2.642639e+04, 5.670928e+12
2.645282e+04, 5.599000e+12
2.647927e+04, 5.684895e+12
2.650575e+04, 5.685207e+12
2.653225e+04, 5.762866e+12
2.655879e+04, 5.547764e+12
2.658534e+04, 5.889264e+12
2.661193e+04, 5.663498e+12
2.663854e+04, 5.640394e+12
2.666518e+04, 5.652668e+12
2.669185e+04, 5.585180e+12
2.671854e+04, 5.672068e+12
2.674526e+04, 5.633050e+12
2.677200e+04, 5.197654e+12
2.679877e+04, 5.668937e+12
2.682557e+04, 5.471438e+12
2.685240e+04, 5.343836e+12
2.687925e+04, 5.597711e+12
2.690613e+04, 5.632382e+12
2.693303e+04, 5.182199e+12
2.695997e+04, 5.095948e+12
2.698693e+04, 5.446661e+12
2.701391e+04, 5.472784e+12
2.704093e+04, 5.125003e+12
2.706797e+04, 5.294314e+12
2.709504e+04, 5.325120e+12
2.712213e+04, 4.977261e+12
2.714925e+04, 5.261580e+12
2.717640e+04, 5.079106e+12
2.720358e+04, 5.197397e+12
2.723078e+04, 5.034527e+12
2.725801e+04, 5.053518e+12
2.728527e+04, 4.796291e+12
2.731256e+04, 5.247191e+12
2.733987e+04, 5.231517e+12
2.736721e+04, 4.709490e+12
2.739458e+04, 4.684614e+12
2.742197e+04, 5.093173e+12
2.744939e+04, 4.958677e+12
2.747684e+04, 4.980818e+12
2.750432e+04, 4.787249e+12
2.753182e+04, 4.887921e+12
2.755936e+04, 4.795665e+12
2.758692e+04, 4.915487e+12
2.761450e+04, 4.905793e+12
2.764212e+04, 4.833166e+12
2.766976e+04, 4.496144e+12
2.769743e+04, 4.689132e+12
2.772513e+04, 4.783240e+12
2.775285e+04, 4.937060e+12
2.778060e+04, 4.686855e+12
2.780839e+04, 4.728989e+12
2.783619e+04, 4.779897e+12
2.786403e+04, 4.426652e+12
2.789189e+04, 4.527061e+12
2.791979e+04, 4.571252e+12
2.794771e+04, 4.803998e+12
2.797565e+04, 4.631771e+12
2.800363e+04, 4.586841e+12
2.803163e+04, 4.269539e+12
2.805966e+04, 4.308894e+12
2.808772e+04, 4.579606e+12
2.811581e+04, 4.640990e+12
2.814393e+04, 4.413975e+12
2.817207e+04, 4.403413e+12
2.820024e+04, 4.103619e+12
2.822844e+04, 4.420243e+12
2.825667e+04, 4.411325e+12
2.828493e+04, 4.495662e+12
2.831321e+04, 4.495562e+12
2.834153e+04, 4.325644e+12
2.836987e+04, 4.156341e+12
2.839824e+04, 4.425604e+12
2.842664e+04, 4.322873e+12
2.845506e+04, 4.380562e+12
2.848352e+04, 4.352195e+12
2.851200e+04, 4.229928e+12
2.854051e+04, 3.991560e+12
2.856905e+04, 4.145770e+12
2.859762e+04, 4.570062e+12
2.862622e+04, 4.312984e+12
2.865485e+04, 4.255982e+12
2.868350e+04, 4.149285e+12
2.871219e+04, 4.072937e+12
2.874090e+04, 3.989564e+12
2.876964e+04, 4.403203e+12
2.879841e+04, 4.303237e+12
2.882721e+04, 4.268785e+12
2.885603e+04, 4.060846e+12
2.888489e+04, 4.025190e+12
2.891377e+04, 3.993921e+12
2.894269e+04, 4.361371e+12
2.897163e+04, 4.322236e+12
2.900060e+04, 3.888362e+12
2.902960e+04, 4.031904e+12
2.905863e+04, 4.142326e+12
2.908769e+04, 3.615320e+12
2.911678e+04, 4.112434e+12
2.914590e+04, 4.176394e+12
2.917504e+04, 4.049474e+12
2.920422e+04, 3.893721e+12
2.923342e+04, 3.805366e+12
2.926265e+04, 3.961197e+12
2.929192e+04, 3.675498e+12
2.932121e+04, 4.113379e+12
2.935053e+04, 3.972367e+12
2.937988e+04, 3.955313e+12
2.940926e+04, 3.748189e+12
2.943867e+04, 3.741451e+12
2.946811e+04, 3.766783e+12
2.949758e+04, 3.764549e+12
2.952707e+04, 3.912016e+12
2.955660e+04, 3.751202e+12
2.958616e+04, 3.926005e+12
2.961574e+04, 3.720253e+12
2.964536e+04, 3.802074e+12
2.967501e+04, 3.586745e+12
2.970468e+04, 3.705024e+12
2.973439e+04, 3.792694e+12
2.976412e+04, 3.894763e+12
2.979388e+04, 3.802112e+12
2.982368e+04, 3.661509e+12
2.985350e+04, 3.744383e+12
2.988335e+04, 3.399760e+12
2.991324e+04, 3.694086e+12
2.994315e+04, 3.813227e+12
2.997309e+04, 3.725828e+12
3.000307e+04, 3.701777e+12
3.003307e+04, 3.575470e+12
3.006310e+04, 3.555730e+12
3.009317e+04, 3.275659e+12
3.012326e+04, 3.587846e+12
3.015338e+04, 3.855106e+12
3.018354e+04, 3.735954e+12
3.021372e+04, 3.521195e+12
3.024393e+04, 3.551967e+12
3.027418e+04, 3.512297e+12
3.030445e+04, 3.438098e+12
3.033476e+04, 3.666098e+12
3.036509e+04, 3.610633e+12
3.039546e+04, 3.611231e+12
3.042585e+04, 3.454749e+12
3.045628e+04, 3.396135e+12
3.048673e+04, 3.298354e+12
3.051722e+04, 3.340292e+12
3.054774e+04, 3.708964e+12
3.057829e+04, 3.516570e+12
3.060886e+04, 3.540461e+12
3.063947e+04, 3.495084e+12
3.067011e+04, 3.476664e+12
3.070078e+04, 3.303492e+12
3.073148e+04, 3.270844e+12
3.076221e+04, 3.443669e+12
3.079298e+04, 3.571441e+12
3.082377e+04, 3.415011e+12
3.085459e+04, 3.346971e+12
3.088545e+04, 3.305247e+12
3.091633e+04, 3.282027e+12
3.094725e+04, 3.297463e+12
3.097820e+04, 3.310550e+12
3.100918e+04, 3.525995e+12
3.104018e+04, 3.445910e+12
3.107122e+04, 3.312170e+12
3.110230e+04, 3.303575e+12
3.113340e+04, 3.228411e+12
3.116453e+04, 3.313258e+12
3.119570e+04, 3.299422e+12
3.122689e+04, 3.380981e+12
3.125812e+04, 3.411453e+12
3.128938e+04, 3.183028e+12
3.132067e+04, 3.080464e+12
3.135199e+04, 3.224991e+12
3.138334e+04, 3.300928e+12
3.141472e+04, 3.334789e+12
3.144614e+04, 3.194970e+12
3.147758e+04, 3.276275e+12
3.150906e+04, 3.301414e+12
3.154057e+04, 3.156340e+12
3.157211e+04, 3.075765e+12
3.160368e+04, 3.288216e+12
3.163529e+04, 3.315153e+12
3.166692e+04, 3.153468e+12
3.169859e+04, 3.237307e+12
3.173029e+04, 3.168197e+12
3.176202e+04, 3.157787e+12
3.179378e+04, 3.013607e+12
3.182557e+04, 3.170655e+12
3.185740e+04, 3.159315e+12
3.188926e+04, 3.138904e+12
3.192115e+04, 3.190158e+12
3.195307e+04, 3.119062e+12
3.198502e+04, 3.076107e+12
3.201700e+04, 3.002927e+12
3.204902e+04, 3.113758e+12
3.208107e+04, 3.234819e+12
3.211315e+04, 3.166769e+12
3.214526e+04, 3.158050e+12
3.217741e+04, 3.050523e+12
3.220959e+04, 3.087905e+12
3.224180e+04, 3.080095e+12
3.227404e+04, 2.979200e+12
3.230631e+04, 3.148232e+12
3.233862e+04, 3.072564e+12
3.237096e+04, 3.037963e+12
3.240333e+04, 3.019885e+12
3.243573e+04, 2.967867e+12
3.246817e+04, 3.019797e+12
3.250064e+04, 3.026459e+12
3.253314e+04, 3.047721e+12
3.256567e+04, 3.115678e+12
3.259824e+04, 3.105230e+12
3.263083e+04, 3.061495e+12
3.266346e+04, 3.007665e+12
3.269613e+04, 2.949445e+12
3.272882e+04, 3.061980e+12
3.276155e+04, 2.943779e+12
3.279431e+04, 2.963684e+12
3.282711e+04, 2.941187e+12
3.285994e+04, 2.905452e+12
3.289280e+04, 2.979650e+12
3.292569e+04, 2.899845e+12
3.295861e+04, 2.934112e+12
3.299157e+04, 2.948138e+12
3.302456e+04, 3.017227e+12
3.305759e+04, 2.970667e+12
3.309065e+04, 2.929074e+12
3.312374e+04, 2.959280e+12
3.315686e+04, 2.880584e+12
3.319002e+04, 2.898039e+12
3.322321e+04, 2.942200e+12
3.325643e+04, 2.924357e+12
3.328969e+04, 3.017243e+12
3.332298e+04, 2.958011e+12
3.335630e+04, 2.882265e+12
3.338966e+04, 2.733372e+12
3.342305e+04, 2.852915e+12
3.345647e+04, 2.871242e+12
3.348993e+04, 2.876664e+12
3.352342e+04, 2.912995e+12
3.355694e+04, 2.803174e+12
3.359050e+04, 2.876932e+12
3.362409e+04, 2.862603e+12
3.365771e+04, 2.856980e+12
3.369137e+04, 2.879350e+12
3.372506e+04, 2.843207e+12
3.375878e+04, 2.820842e+12
3.379254e+04, 2.821672e+12
3.382634e+04, 2.832347e+12
3.386016e+04, 2.832120e+12
3.389402e+04, 2.864238e+12
3.392792e+04, 2.763630e+12
3.396184e+04, 2.658005e+12
3.399581e+04, 2.771172e+12
3.402980e+04, 2.781550e+12
3.406383e+04, 2.801832e+12
3.409790e+04, 2.738047e+12
3.413199e+04, 2.740742e+12
3.416613e+04, 2.732022e+12
3.420029e+04, 2.756935e+12
3.423449e+04, 2.792346e+12
3.426873e+04, 2.786492e+12
3.430300e+04, 2.762768e+12
3.433730e+04, 2.774638e+12
3.437164e+04, 2.754771e+12
3.440601e+04, 2.751914e+12
3.444041e+04, 2.675802e+12
3.447485e+04, 2.713676e+12
3.450933e+04, 2.693229e+12
3.454384e+04, 2.674574e+12
3.457838e+04, 2.571928e+12
3.461296e+04, 2.661724e+12
3.464757e+04, 2.687417e+12
3.468222e+04, 2.746218e+12
3.471690e+04, 2.733591e+12
3.475162e+04, 2.693154e+12
3.478637e+04, 2.713634e+12
3.482116e+04, 2.635654e+12
3.485598e+04, 2.658027e+12
3.489083e+04, 2.660130e+12
3.492573e+04, 2.601145e+12
3.496065e+04, 2.701872e+12
3.499561e+04, 2.606110e+12
3.503061e+04, 2.680961e+12
3.506564e+04, 2.631053e+12
3.510070e+04, 2.583526e+12
3.513580e+04, 2.610900e+12
3.517094e+04, 2.592656e+12
3.520611e+04, 2.437411e+12
3.524132e+04, 2.554525e+12
3.527656e+04, 2.570278e+12
3.531184e+04, 2.648144e+12
3.534715e+04, 2.616389e+12
3.538249e+04, 2.539783e+12
3.541788e+04, 2.606838e+12
3.545329e+04, 2.538223e+12
3.548875e+04, 2.583197e+12
3.552424e+04, 2.532017e+12
3.555976e+04, 2.548842e+12
3.559532e+04, 2.541337e+12
3.563092e+04, 2.558943e+12
3.566655e+04, 2.555811e+12
3.570221e+04, 2.425016e+12
3.573792e+04, 2.466799e+12
3.577365e+04, 2.458870e+12
3.580943e+04, 2.537265e+12
3.584524e+04, 2.509788e+12
3.588108e+04, 2.410616e+12
3.591696e+04, 2.452851e+12
3.595288e+04, 2.505632e+12
3.598883e+04, 2.455509e+12
3.602482e+04, 2.435169e+12
3.606085e+04, 2.510602e+12
3.609691e+04, 2.492788e+12
3.613300e+04, 2.452208e+12
3.616914e+04, 2.443452e+12
3.620531e+04, 2.450314e+12
3.624151e+04, 2.427574e+12
3.627775e+04, 2.469733e+12
3.631403e+04, 2.418391e+12
3.635035e+04, 2.334600e+12
3.638670e+04, 2.320271e+12
3.642308e+04, 2.429977e+12
3.645951e+04, 2.425317e+12
3.649596e+04, 2.390801e+12
3.653246e+04, 2.367385e+12
3.656899e+04, 2.345645e+12
3.660556e+04, 2.293949e+12
3.664217e+04, 2.320821e+12
3.667881e+04, 2.398164e+12
3.671549e+04, 2.384406e+12
3.675220e+04, 2.352561e+12
3.678896e+04, 2.319266e+12
3.682575e+04, 2.363438e+12
3.686257e+04, 2.351505e+12
3.689943e+04, 2.335735e+12
3.693633e+04, 2.308784e+12
3.697327e+04, 2.270718e+12
3.701024e+04, 2.259078e+12
3.704725e+04, 2.277822e+12
3.708430e+04, 2.202057e+12
3.712138e+04, 2.325634e+12
3.715851e+04, 2.285217e+12
3.719566e+04, 2.290830e+12
3.723286e+04, 2.290128e+12
3.727009e+04, 2.297826e+12
3.730736e+04, 2.287341e+12
3.734467e+04, 2.138403e+12
3.738202e+04, 2.213864e+12
3.741940e+04, 2.246110e+12
3.745682e+04, 2.249591e+12
3.749427e+04, 2.273435e+12
3.753177e+04, 2.265368e+12
3.756930e+04, 2.236904e+12
3.760687e+04, 2.237467e+12
3.764448e+04, 2.176956e+12
3.768212e+04, 2.195667e+12
3.771980e+04, 2.153820e+12
3.775752e+04, 2.180684e+12
3.779528e+04, 2.170291e+12
3.783307e+04, 2.185993e+12
3.787091e+04, 2.204139e+12
3.790878e+04, 2.195726e+12
3.794669e+04, 2.192145e+12
3.798463e+04, 2.176403e+12
3.802262e+04, 2.197059e+12
3.806064e+04, 2.133109e+12
3.809870e+04, 2.091174e+12
3.813680e+04, 2.078369e+12
3.817494e+04, 2.156467e+12
3.821311e+04, 2.149593e+12
3.825133e+04, 2.133404e+12
3.828958e+04, 2.111595e+12
3.832787e+04, 2.095562e+12
3.836619e+04, 2.062632e+12
3.840456e+04, 2.074201e+12
3.844297e+04, 2.118774e+12
3.848141e+04, 2.046855e+12
3.851989e+04, 2.049098e+12
3.855841e+04, 2.062250e+12
3.859697e+04, 2.091568e+12
3.863556e+04, 2.067932e+12
3.867420e+04, 2.040394e+12
3.871287e+04, 2.056261e+12
3.875159e+04, 2.049158e+12
3.879034e+04, 2.041503e+12
3.882913e+04, 2.070163e+12
3.886796e+04, 2.012445e+12
3.890683e+04, 1.998743e+12
3.894573e+04, 1.946862e+12
3.898468e+04, 1.982399e+12
3.902366e+04, 2.017660e+12
3.906269e+04, 1.990432e+12
3.910175e+04, 1.946059e+12
3.914085e+04, 1.945812e+12
3.917999e+04, 1.991005e+12
3.921917e+04, 1.978589e+12
3.925839e+04, 1.979029e+12
3.929765e+04, 1.951926e+12
3.933695e+04, 1.920376e+12
3.937628e+04, 1.925123e+12
3.941566e+04, 1.940756e+12
3.945508e+04, 1.941009e+12
3.949453e+04, 1.927308e+12
3.953403e+04, 1.906207e+12
3.957356e+04, 1.910759e+12
3.961313e+04, 1.919263e+12
3.965275e+04, 1.887319e+12
3.969240e+04, 1.887292e+12
3.973209e+04, 1.875188e+12
3.977182e+04, 1.856521e+12
3.981160e+04, 1.782902e+12
3.985141e+04, 1.799726e+12
3.989126e+04, 1.825403e+12
3.993115e+04, 1.831172e+12
3.997108e+04, 1.832947e+12
4.001105e+04, 1.824950e+12
4.005106e+04, 1.812759e+12
4.009111e+04, 1.803729e+12
4.013121e+04, 1.804341e+12
4.017134e+04, 1.764426e+12
4.021151e+04, 1.728360e+12
4.025172e+04, 1.778410e+12
4.029197e+04, 1.767921e+12
4.033226e+04, 1.775702e+12
4.037260e+04, 1.776971e+12
4.041297e+04, 1.725649e+12
4.045338e+04, 1.668208e+12
4.049383e+04, 1.706273e+12
4.053433e+04, 1.722379e+12
4.057486e+04, 1.718885e+12
4.061544e+04, 1.674703e+12
4.065605e+04, 1.707233e+12
4.069671e+04, 1.670318e+12
4.073741e+04, 1.645801e+12
4.077814e+04, 1.651544e+12
4.081892e+04, 1.654117e+12
4.085974e+04, 1.613250e+12
4.090060e+04, 1.626255e+12
4.094150e+04, 1.640647e+12
4.098244e+04, 1.634712e+12
4.102342e+04, 1.642708e+12
4.106445e+04, 1.643102e+12
4.110551e+04, 1.575086e+12
4.114662e+04, 1.613976e+12
4.118776e+04, 1.594383e+12
4.122895e+04, 1.596594e+12
4.127018e+04, 1.594475e+12
4.131145e+04, 1.557788e+12
4.135276e+04, 1.602917e+12
4.139412e+04, 1.550786e+12
4.143551e+04, 1.576442e+12
4.147695e+04, 1.579699e+12
4.151842e+04, 1.584363e+12
4.155994e+04, 1.536217e+12
4.160150e+04, 1.515301e+12
4.164310e+04, 1.517298e+12
4.168475e+04, 1.481964e+12
4.172643e+04, 1.509196e+12
4.176816e+04, 1.528383e+12
4.180992e+04, 1.531486e+12
4.185173e+04, 1.481384e+12
4.189359e+04, 1.512654e+12
4.193548e+04, 1.508651e+12
4.197742e+04, 1.496194e+12
4.201939e+04, 1.482422e+12
4.206141e+04, 1.478783e+12
4.210347e+04, 1.468172e+12
4.214558e+04, 1.444856e+12
4.218772e+04, 1.456080e+12
4.222991e+04, 1.452084e+12
4.227214e+04, 1.468381e+12
4.231441e+04, 1.468789e+12
4.235673e+04, 1.468036e+12
4.239908e+04, 1.445094e+12
4.244148e+04, 1.434189e+12
4.248392e+04, 1.417112e+12
4.252641e+04, 1.381495e+12
4.256893e+04, 1.416132e+12
4.261150e+04, 1.405775e+12
4.265411e+04, 1.401790e+12
4.269677e+04, 1.388664e+12
4.273947e+04, 1.366332e+12
4.278221e+04, 1.417385e+12
4.282499e+04, 1.384664e+12
4.286781e+04, 1.402092e+12
4.291068e+04, 1.379211e+12
4.295359e+04, 1.289421e+12
4.299654e+04, 1.315843e+12
4.303954e+04, 1.288651e+12
4.308258e+04, 1.314660e+12
4.312566e+04, 1.318436e+12
4.316879e+04, 1.308299e+12
4.321196e+04, 1.317730e+12
4.325517e+04, 1.297493e+12
4.329842e+04, 1.294400e+12
4.334172e+04, 1.309205e+12
4.338506e+04, 1.269962e+12
4.342845e+04, 1.270907e+12
4.347188e+04, 1.280014e+12
4.351535e+04, 1.217843e+12
4.355887e+04, 1.221283e+12
4.360242e+04, 1.250046e+12
4.364603e+04, 1.242034e+12
4.368967e+04, 1.206967e+12
4.373336e+04, 1.221345e+12
4.377710e+04, 1.206069e+12
4.382087e+04, 1.203086e+12
4.386469e+04, 1.209581e+12
4.390856e+04, 1.240271e+12
4.395247e+04, 1.188411e+12
4.399642e+04, 1.196344e+12
4.404042e+04, 1.174292e+12
4.408446e+04, 1.143660e+12
4.412854e+04, 1.153270e+12
4.417267e+04, 1.153727e+12
4.421684e+04, 1.153149e+12
4.426106e+04, 1.140491e+12
4.430532e+04, 1.143224e+12
4.434963e+04, 1.102055e+12
4.439398e+04, 1.111872e+12
4.443837e+04, 1.146461e+12
4.448281e+04, 1.125815e+12
4.452729e+04, 1.144468e+12
4.457182e+04, 1.101504e+12
4.461639e+04, 1.127210e+12
4.466101e+04, 1.070874e+12
4.470567e+04, 1.081911e+12
4.475037e+04, 1.120371e+12
4.479512e+04, 1.054657e+12
4.483992e+04, 1.103407e+12
4.488476e+04, 1.080937e+12
4.492964e+04, 1.075837e+12
4.497457e+04, 1.078091e+12
4.501955e+04, 1.072389e+12
4.506457e+04, 1.045642e+12
4.510963e+04, 1.059398e+12
4.515474e+04, 1.068995e+12
4.519990e+04, 1.029686e+12
4.524510e+04, 1.053002e+12
4.529034e+04, 1.047775e+12
4.533563e+04, 1.006245e+12
4.538097e+04, 1.038019e+12
4.542635e+04, 1.044499e+12
4.547177e+04, 1.019062e+12
4.551725e+04, 1.001221e+12
4.556276e+04, 1.030875e+12
4.560833e+04, 1.013930e+12
4.565393e+04, 9.973543e+11
4.569959e+04, 1.003029e+12
4.574529e+04, 9.931074e+11
4.579103e+04, 1.011178e+12
4.583682e+04, 9.957408e+11
4.588266e+04, 9.645305e+11
4.592854e+04, 1.001264e+12
4.597447e+04, 9.729236e+11
4.602045e+04, 9.767665e+11
4.606647e+04, 9.890251e+11
4.611253e+04, 9.880480e+11
4.615865e+04, 9.317426e+11
4.620480e+04, 9.871274e+11
4.625101e+04, 9.252013e+11
4.629726e+04, 9.917310e+11
4.634356e+04, 9.688211e+11
4.638990e+04, 9.335873e+11
4.643629e+04, 9.642893e+11
4.648273e+04, 9.466448e+11
4.652921e+04, 9.421924e+11
4.657574e+04, 9.620640e+11
4.662231e+04, 9.273031e+11
4.666894e+04, 9.300206e+11
4.671561e+04, 9.407889e+11
4.676232e+04, 9.401905e+11
4.680908e+04, 9.061290e+11
4.685589e+04, 9.407847e+11
4.690275e+04, 9.061929e+11
4.694965e+04, 9.473810e+11
4.699660e+04, 9.050763e+11
4.704360e+04, 9.195864e+11
4.709064e+04, 8.931679e+11
4.713773e+04, 9.186506e+11
4.718487e+04, 8.870204e+11
4.723205e+04, 9.255853e+11
4.727929e+04, 8.813142e+11
4.732657e+04, 8.898079e+11
4.737389e+04, 8.905768e+11
4.742127e+04, 9.028227e+11
4.746869e+04, 8.875609e+11
4.751616e+04, 8.815355e+11
4.756367e+04, 8.762238e+11
4.761124e+04, 8.703698e+11
4.765885e+04, 8.555161e+11
4.770651e+04, 8.851443e+11
4.775421e+04, 8.527704e+11
4.780197e+04, 8.540871e+11
4.784977e+04, 8.349758e+11
4.789762e+04, 8.882905e+11
4.794552e+04, 8.209275e+11
4.799346e+04, 8.735826e+11
4.804146e+04, 8.381382e+11
4.808950e+04, 8.531014e+11
4.813759e+04, 8.057504e+11
4.818572e+04, 8.523713e+11
4.823391e+04, 8.452963e+11
4.828214e+04, 8.601737e+11
4.833043e+04, 8.138639e+11
4.837876e+04, 8.274619e+11
4.842713e+04, 8.143591e+11
4.847556e+04, 8.441474e+11
4.852404e+04, 8.084756e+11
4.857256e+04, 8.245199e+11
4.862113e+04, 8.199139e+11
4.866976e+04, 8.105374e+11
4.871842e+04, 7.901784e+11
4.876714e+04, 7.865087e+11
4.881591e+04, 8.293564e+11
4.886473e+04, 7.926340e+11
4.891359e+04, 8.092011e+11
4.896250e+04, 7.605504e+11
4.901147e+04, 8.159899e+11
4.906048e+04, 7.863182e+11
4.910954e+04, 7.848569e+11
4.915865e+04, 7.888742e+11
4.920781e+04, 7.933295e+11
4.925702e+04, 7.585713e+11
4.930627e+04, 7.720606e+11
4.935558e+04, 7.485047e+11
4.940493e+04, 7.942255e+11
4.945434e+04, 7.686288e+11
4.950379e+04, 7.470097e+11
4.955330e+04, 7.416019e+11
4.960285e+04, 7.462014e+11
4.965245e+04, 7.609110e+11
4.970211e+04, 7.182264e+11
4.975181e+04, 7.767888e+11
4.980156e+04, 7.383049e+11
4.985136e+04, 7.643386e+11
4.990121e+04, 7.221165e+11
4.995111e+04, 7.325047e+11
5.000106e+04, 7.144399e+11
5.005107e+04, 7.413508e+11
5.010112e+04, 7.186387e+11
5.015122e+04, 7.211112e+11
5.020137e+04, 6.890561e+11
5.025157e+04, 7.007674e+11
5.030182e+04, 7.041028e+11
5.035212e+04, 7.211776e+11
5.040248e+04, 7.018929e+11
5.045288e+04, 6.866141e+11
5.050333e+04, 7.446413e+11
5.055383e+04, 6.871841e+11
5.060439e+04, 6.930705e+11
5.065499e+04, 6.796461e+11
5.070565e+04, 7.108953e+11
5.075635e+04, 6.980221e+11
5.080711e+04, 6.610044e+11
5.085792e+04, 6.929179e+11
5.090878e+04, 6.705790e+11
5.095968e+04, 6.851557e+11
5.101064e+04, 6.967223e+11
5.106165e+04, 6.627984e+11
5.111272e+04, 6.692104e+11
5.116383e+04, 6.780007e+11
5.121499e+04, 6.598998e+11
5.126621e+04, 6.592115e+11
5.131747e+04, 6.407837e+11
5.136879e+04, 6.836461e+11
5.142016e+04, 6.549878e+11
5.147158e+04, 6.229350e+11
5.152305e+04, 6.853532e+11
5.157457e+04, 6.446714e+11
5.162615e+04, 6.359858e+11
5.167778e+04, 6.325165e+11
5.172945e+04, 6.359414e+11
5.178118e+04, 6.504539e+11
5.183296e+04, 6.399524e+11
5.188480e+04, 6.481348e+11
5.193668e+04, 6.356798e+11
5.198862e+04, 6.083824e+11
5.204061e+04, 6.250074e+11
5.209265e+04, 6.466518e+11
5.214474e+04, 6.288010e+11
5.219688e+04, 6.220150e+11
5.224908e+04, 6.151152e+11
5.230133e+04, 6.141360e+11
5.235363e+04, 6.245656e+11
5.240599e+04, 5.917817e+11
5.245839e+04, 6.116626e+11
5.251085e+04, 6.080895e+11
5.256336e+04, 6.010238e+11
5.261592e+04, 6.334678e+11
5.266854e+04, 5.987340e+11
5.272121e+04, 5.942562e+11
5.277393e+04, 5.897128e+11
5.282670e+04, 5.787374e+11
5.287953e+04, 6.033837e+11
5.293241e+04, 5.858748e+11
5.298534e+04, 5.829687e+11
5.303833e+04, 6.055316e+11
5.309137e+04, 5.648182e+11
5.314446e+04, 5.958437e+11
5.319760e+04, 5.595993e+11
5.325080e+04, 5.812510e+11
5.330405e+04, 5.854521e+11
5.335735e+04, 5.858876e+11
5.341071e+04, 5.659037e+11
5.346412e+04, 5.581885e+11
5.351759e+04, 5.581559e+11
5.357110e+04, 5.795493e+11
5.362468e+04, 5.643729e+11
5.367830e+04, 5.579049e+11
5.373198e+04, 5.708178e+11
5.378571e+04, 5.546765e+11
5.383950e+04, 5.664034e+11
5.389334e+04, 5.465346e+11
5.394723e+04, 5.547201e+11
5.400118e+04, 5.646629e+11
5.405518e+04, 5.435067e+11
5.410923e+04, 5.309588e+11
5.416334e+04, 5.387395e+11
5.421751e+04, 5.332640e+11
5.427172e+04, 5.359457e+11
5.432599e+04, 5.351492e+11
5.438032e+04, 5.269956e+11
5.443470e+04, 5.471452e+11
5.448914e+04, 5.381337e+11
5.454362e+04, 5.234627e+11
5.459817e+04, 5.367444e+11
5.465277e+04, 5.208234e+11
5.470742e+04, 5.252140e+11
5.476213e+04, 5.221269e+11
5.481689e+04, 5.262394e+11
5.487171e+04, 5.261116e+11
5.492658e+04, 5.132313e+11
5.498150e+04, 5.253682e+11
5.503649e+04, 5.257183e+11
5.509152e+04, 5.062232e+11
5.514661e+04, 5.149353e+11
5.520176e+04, 5.124141e+11
5.525696e+04, 4.915596e+11
5.531222e+04, 4.937968e+11
5.536753e+04, 5.221237e+11
5.542290e+04, 5.016598e+11
5.547832e+04, 4.897419e+11
5.553380e+04, 5.057374e+11
5.558933e+04, 4.946999e+11
5.564492e+04, 4.891188e+11
5.570057e+04, 4.969962e+11
5.575627e+04, 4.939959e+11
5.581202e+04, 4.801955e+11
5.586784e+04, 4.851279e+11
5.592370e+04, 4.952759e+11
5.597963e+04, 5.008304e+11
5.603561e+04, 4.835332e+11
5.609164e+04, 4.854729e+11
5.614774e+04, 4.786530e+11
5.620388e+04, 4.708809e+11
5.626009e+04, 4.830880e+11
5.631635e+04, 4.725020e+11
5.637266e+04, 4.847056e+11
5.642904e+04, 4.712162e+11
5.648546e+04, 4.711226e+11
5.654195e+04, 4.641355e+11
5.659849e+04, 4.714597e+11
5.665509e+04, 4.599577e+11
5.671175e+04, 4.798912e+11
5.676846e+04, 4.552444e+11
5.682523e+04, 4.571549e+11
5.688205e+04, 4.613303e+11
5.693893e+04, 4.495898e+11
5.699587e+04, 4.615280e+11
5.705287e+04, 4.718151e+11
5.710992e+04, 4.473293e+11
5.716703e+04, 4.416379e+11
5.722420e+04, 4.486162e+11
5.728142e+04, 4.466541e+11
5.733870e+04, 4.305766e+11
5.739604e+04, 4.469045e+11
5.745344e+04, 4.547064e+11
5.751089e+04, 4.524678e+11
5.756840e+04, 4.458577e+11
5.762597e+04, 4.386732e+11
5.768360e+04, 4.420539e+11
5.774128e+04, 4.422075e+11
5.779902e+04, 4.281834e+11
5.785682e+04, 4.384460e+11
5.791468e+04, 4.393650e+11
5.797259e+04, 4.214412e+11
5.803056e+04, 4.442797e+11
5.808860e+04, 4.420697e+11
5.814668e+04, 4.247982e+11
5.820483e+04, 4.222519e+11
5.826304e+04, 4.304239e+11
5.832130e+04, 4.140333e+11
5.837962e+04, 4.193120e+11
5.843800e+04, 4.217444e+11
5.849644e+04, 4.181548e+11
5.855493e+04, 4.148263e+11
5.861349e+04, 4.303873e+11
5.867210e+04, 4.275695e+11
5.873077e+04, 4.093986e+11
5.878951e+04, 4.152403e+11
5.884829e+04, 4.122157e+11
5.890714e+04, 4.287314e+11
5.896605e+04, 4.049568e+11
5.902502e+04, 3.952499e+11
5.908404e+04, 4.107550e+11
5.914313e+04, 4.117587e+11
5.920227e+04, 4.076701e+11
5.926147e+04, 4.155106e+11
5.932073e+04, 4.052713e+11
5.938005e+04, 3.995632e+11
5.943943e+04, 4.000104e+11
5.949887e+04, 3.956231e+11
5.955837e+04, 4.081261e+11
5.961793e+04, 3.956562e+11
5.967755e+04, 3.851647e+11
5.973723e+04, 4.020020e+11
5.979696e+04, 3.943878e+11
5.985676e+04, 3.909899e+11
5.991662e+04, 3.877640e+11
5.997653e+04, 3.951874e+11
6.003651e+04, 3.938700e+11
6.009655e+04, 3.988977e+11
6.015664e+04, 3.866422e+11
6.021680e+04, 3.812212e+11
6.027702e+04, 3.925025e+11
6.033729e+04, 3.744513e+11
6.039763e+04, 3.735792e+11
6.045803e+04, 3.731869e+11
6.051849e+04, 3.747849e+11
6.057900e+04, 3.795380e+11
6.063958e+04, 3.829938e+11
6.070022e+04, 3.830852e+11
6.076092e+04, 3.775289e+11
6.082168e+04, 3.810296e+11
6.088251e+04, 3.760531e+11
6.094339e+04, 3.798441e+11
6.100433e+04, 3.632600e+11
6.106534e+04, 3.709834e+11
6.112640e+04, 3.560007e+11
6.118753e+04, 3.641237e+11
6.124872e+04, 3.695473e+11
6.130996e+04, 3.762172e+11
6.137127e+04, 3.748405e+11
6.143265e+04, 3.603332e+11
6.149408e+04, 3.649667e+11
6.155557e+04, 3.634667e+11
6.161713e+04, 3.599517e+11
6.167874e+04, 3.629238e+11
6.174042e+04, 3.480714e+11
6.180216e+04, 3.610259e+11
6.186397e+04, 3.528491e+11
6.192583e+04, 3.567261e+11
6.198776e+04, 3.532621e+11
6.204974e+04, 3.538583e+11
6.211179e+04, 3.571394e+11
6.217390e+04, 3.470772e+11
6.223608e+04, 3.530051e+11
6.229831e+04, 3.575583e+11
6.236061e+04, 3.493632e+11
6.242297e+04, 3.370163e+11
6.248540e+04, 3.411888e+11
6.254788e+04, 3.495929e+11
6.261043e+04, 3.382925e+11
6.267304e+04, 3.423613e+11
6.273571e+04, 3.366019e+11
6.279845e+04, 3.364350e+11
6.286125e+04, 3.483339e+11
6.292411e+04, 3.315762e+11
6.298703e+04, 3.324904e+11
6.305002e+04, 3.412163e+11
6.311307e+04, 3.348321e+11
6.317618e+04, 3.282376e+11
6.323936e+04, 3.302870e+11
6.330260e+04, 3.328173e+11
6.336590e+04, 3.258279e+11
6.342927e+04, 3.243103e+11
6.349270e+04, 3.248726e+11
6.355619e+04, 3.142618e+11
6.361975e+04, 3.251891e+11
6.368337e+04, 3.257669e+11
6.374705e+04, 3.214366e+11
6.381080e+04, 3.133799e+11
6.387461e+04, 3.078547e+11
6.393848e+04, 3.193674e+11
6.400242e+04, 3.195578e+11
6.406642e+04, 3.044308e+11
6.413049e+04, 3.021461e+11
6.419462e+04, 3.034475e+11
6.425881e+04, 3.143507e+11
6.432307e+04, 2.999146e+11
6.438740e+04, 3.010440e+11
6.445178e+04, 3.039065e+11
6.451623e+04, 2.922177e+11
6.458075e+04, 2.940852e+11
6.464533e+04, 2.981196e+11
6.470998e+04, 2.740893e+11
6.477469e+04, 2.770592e+11
6.483946e+04, 2.783921e+11
6.490430e+04, 2.884268e+11
6.496921e+04, 2.778120e+11
6.503417e+04, 2.730270e+11
6.509921e+04, 2.893569e+11
6.516431e+04, 2.726182e+11
6.522947e+04, 2.786171e+11
6.529470e+04, 2.704750e+11
6.536000e+04, 2.737393e+11
6.542536e+04, 2.678608e+11
6.549078e+04, 2.694535e+11
6.555627e+04, 2.671902e+11
6.562183e+04, 2.612029e+11
6.568745e+04, 2.579505e+11
6.575314e+04, 2.602256e+11
6.581889e+04, 2.681258e+11
6.588471e+04, 2.630092e+11
6.595059e+04, 2.414943e+11
6.601655e+04, 2.535573e+11
6.608256e+04, 2.633375e+11
6.614864e+04, 2.540664e+11
6.621479e+04, 2.420998e+11
6.628101e+04, 2.456120e+11
6.634729e+04, 2.444629e+11
6.641364e+04, 2.438976e+11
6.648005e+04, 2.541141e+11
6.654653e+04, 2.433608e+11
6.661308e+04, 2.462297e+11
6.667969e+04, 2.448910e+11
6.674637e+04, 2.473972e+11
6.681312e+04, 2.371252e+11
6.687993e+04, 2.346984e+11
6.694681e+04, 2.391171e+11
6.701376e+04, 2.455090e+11
6.708077e+04, 2.455092e+11
6.714785e+04, 2.409285e+11
6.721500e+04, 2.401482e+11
6.728221e+04, 2.365929e+11
6.734949e+04, 2.403853e+11
6.741684e+04, 2.381998e+11
6.748426e+04, 2.300675e+11
6.755175e+04, 2.362989e+11
6.761930e+04, 2.325997e+11
6.768692e+04, 2.281266e+11
6.775460e+04, 2.296665e+11
6.782236e+04, 2.245996e+11
6.789018e+04, 2.266666e+11
6.795807e+04, 2.264691e+11
6.802603e+04, 2.330522e+11
6.809405e+04, 2.273128e+11
6.816215e+04, 2.169720e+11
6.823031e+04, 2.253489e+11
6.829854e+04, 2.225409e+11
6.836684e+04, 2.166547e+11
6.843521e+04, 2.304826e+11
6.850364e+04, 2.244280e+11
6.857215e+04, 2.159279e+11
6.864072e+04, 2.201040e+11
6.870936e+04, 2.176817e+11
6.877807e+04, 2.232515e+11
6.884685e+04, 2.142472e+11
6.891569e+04, 2.180361e+11
6.898461e+04, 2.199996e+11
6.905359e+04, 2.099944e+11
6.912265e+04, 2.169769e+11
6.919177e+04, 2.104315e+11
6.926096e+04, 2.116544e+11
6.933022e+04, 2.154008e+11
6.939955e+04, 2.113699e+11
6.946895e+04, 2.119626e+11
6.953842e+04, 2.086942e+11
6.960796e+04, 2.102759e+11
6.967757e+04, 2.057539e+11
6.974724e+04, 2.099715e+11
6.981699e+04, 2.054068e+11
6.988681e+04, 2.111013e+11
6.995670e+04, 2.132910e+11
7.002665e+04, 2.022068e+11
7.009668e+04, 1.987202e+11
7.016678e+04, 2.033885e+11
7.023694e+04, 2.003762e+11
7.030718e+04, 1.992604e+11
7.037749e+04, 2.099019e+11
7.044786e+04, 2.009989e+11
7.051831e+04, 1.963622e+11
7.058883e+04, 2.042786e+11
7.065942e+04, 2.020331e+11
7.073008e+04, 1.956186e+11
7.080081e+04, 1.955230e+11
7.087161e+04, 1.976075e+11
7.094248e+04, 1.938744e+11
7.101342e+04, 1.946714e+11
7.108444e+04, 1.922519e+11
7.115552e+04, 1.952567e+11
7.122668e+04, 1.908292e+11
7.129790e+04, 1.948257e+11
7.136920e+04, 1.914381e+11
7.144057e+04, 1.902957e+11
7.151201e+04, 1.887658e+11
7.158352e+04, 1.968900e+11
7.165511e+04, 1.944574e+11
7.172676e+04, 1.895169e+11
7.179849e+04, 1.894081e+11
7.187029e+04, 1.895549e+11
7.194216e+04, 1.876351e+11
7.201410e+04, 1.870252e+11
7.208611e+04, 1.850801e+11
7.215820e+04, 1.852170e+11
7.223036e+04, 1.842862e+11
7.230259e+04, 1.847272e+11
7.237489e+04, 1.829709e+11
7.244727e+04, 1.839831e+11
7.251971e+04, 1.847032e+11
7.259223e+04, 1.806732e+11
7.266482e+04, 1.847952e+11
7.273749e+04, 1.765322e+11
7.281023e+04, 1.814857e+11
7.288304e+04, 1.814533e+11
7.295592e+04, 1.755504e+11
7.302888e+04, 1.763890e+11
7.310191e+04, 1.795132e+11
7.317501e+04, 1.797396e+11
7.324818e+04, 1.775279e+11
7.332143e+04, 1.725009e+11
7.339475e+04, 1.726862e+11
7.346815e+04, 1.713907e+11
7.354161e+04, 1.735671e+11
7.361516e+04, 1.715741e+11
7.368877e+04, 1.726486e+11
7.376246e+04, 1.694769e+11
7.383622e+04, 1.715137e+11
7.391006e+04, 1.757131e+11
7.398397e+04, 1.728158e+11
7.405795e+04, 1.710232e+11
7.413201e+04, 1.681463e+11
7.420614e+04, 1.670751e+11
7.428035e+04, 1.663187e+11
7.435463e+04, 1.621552e+11
7.442898e+04, 1.656351e+11
7.450341e+04, 1.689981e+11
7.457792e+04, 1.671617e+11
7.465249e+04, 1.653990e+11
7.472715e+04, 1.663202e+11
7.480187e+04, 1.656629e+11
7.487668e+04, 1.707951e+11
7.495155e+04, 1.589046e+11
7.502650e+04, 1.610276e+11
7.510153e+04, 1.647515e+11
7.517663e+04, 1.609043e+11
7.525181e+04, 1.593230e+11
7.532706e+04, 1.559846e+11
7.540239e+04, 1.578167e+11
7.547779e+04, 1.595223e+11
7.555327e+04, 1.610025e+11
7.562882e+04, 1.628593e+11
7.570445e+04, 1.538021e+11
7.578015e+04, 1.536159e+11
7.585593e+04, 1.515328e+11
7.593179e+04, 1.576605e+11
7.600772e+04, 1.475586e+11
7.608373e+04, 1.509112e+11
7.615981e+04, 1.481919e+11
7.623597e+04, 1.530874e+11
7.631221e+04, 1.470364e+11
7.638852e+04, 1.514472e+11
7.646491e+04, 1.499373e+11
7.654138e+04, 1.502245e+11
7.661792e+04, 1.466598e+11
7.669453e+04, 1.459516e+11
7.677123e+04, 1.483190e+11
7.684800e+04, 1.493209e+11
7.692485e+04, 1.456991e+11
7.700177e+04, 1.473848e+11
7.707877e+04, 1.448915e+11
7.715585e+04, 1.442762e+11
7.723301e+04, 1.436829e+11
7.731024e+04, 1.430611e+11
7.738755e+04, 1.385811e+11
7.746494e+04, 1.389190e+11
7.754241e+04, 1.426087e+11
7.761995e+04, 1.396970e+11
7.769757e+04, 1.381386e+11
7.777527e+04, 1.423132e+11
7.785304e+04, 1.387393e+11
7.793089e+04, 1.391831e+11
7.800882e+04, 1.342321e+11
7.808683e+04, 1.357064e+11
7.816492e+04, 1.373673e+11
7.824308e+04, 1.395062e+11
7.832133e+04, 1.348831e+11
7.839965e+04, 1.388650e+11
7.847805e+04, 1.384572e+11
7.855653e+04, 1.315806e+11
7.863508e+04, 1.327129e+11
7.871372e+04, 1.299771e+11
7.879243e+04, 1.328920e+11
7.887122e+04, 1.295995e+11
7.895010e+04, 1.274606e+11
7.902905e+04, 1.300347e+11
7.910808e+04, 1.297796e+11
7.918718e+04, 1.307905e+11
7.926637e+04, 1.277797e+11
7.934564e+04, 1.314168e+11
7.942498e+04, 1.289061e+11
7.950441e+04, 1.286739e+11
7.958391e+04, 1.272619e+11
7.966350e+04, 1.250480e+11
7.974316e+04, 1.253510e+11
7.982290e+04, 1.220164e+11
7.990273e+04, 1.245119e+11
7.998263e+04, 1.266675e+11
8.006261e+04, 1.244262e+11
8.014267e+04, 1.245973e+11
8.022282e+04, 1.218688e+11
8.030304e+04, 1.274988e+11
8.038334e+04, 1.216885e+11
8.046373e+04, 1.212129e+11
8.054419e+04, 1.216257e+11
8.062473e+04, 1.220028e+11
8.070536e+04, 1.205673e+11
8.078606e+04, 1.191637e+11
8.086685e+04, 1.224583e+11
8.094772e+04, 1.186866e+11
8.102866e+04, 1.164408e+11
8.110969e+04, 1.179441e+11
8.119080e+04, 1.179622e+11
8.127199e+04, 1.168857e+11
8.135326e+04, 1.195614e+11
8.143462e+04, 1.192519e+11
8.151605e+04, 1.170001e+11
8.159757e+04, 1.134274e+11
8.167917e+04, 1.177697e+11
8.176085e+04, 1.172611e+11
8.184261e+04, 1.157625e+11
8.192445e+04, 1.143518e+11
8.200637e+04, 1.113137e+11
8.208838e+04, 1.110450e+11
8.217047e+04, 1.136665e+11
8.225264e+04, 1.126929e+11
8.233489e+04, 1.118333e+11
8.241723e+04, 1.124953e+11
8.249964e+04, 1.136505e+11
8.258214e+04, 1.145642e+11
8.266473e+04, 1.095900e+11
8.274739e+04, 1.108973e+11
8.283014e+04, 1.069877e+11
8.291297e+04, 1.111129e+11
8.299588e+04, 1.095671e+11
8.307888e+04, 1.100334e+11
8.316196e+04, 1.082377e+11
8.324512e+04, 1.059847e+11
8.332836e+04, 1.052626e+11
8.341169e+04, 1.079196e+11
8.349510e+04, 1.059574e+11
8.357860e+04, 1.067366e+11
8.366218e+04, 1.066502e+11
8.374584e+04, 1.028191e+11
8.382958e+04, 1.031094e+11
8.391341e+04, 1.035306e+11
8.399733e+04, 1.055964e+11
8.408132e+04, 1.053712e+11
8.416541e+04, 1.070752e+11
8.424957e+04, 1.029324e+11
8.433382e+04, 1.033211e+11
8.441815e+04, 1.033307e+11
8.450257e+04, 1.023269e+11
8.458708e+04, 1.010557e+11
8.467166e+04, 1.026136e+11
8.475633e+04, 1.027017e+11
8.484109e+04, 1.004814e+11
8.492593e+04, 9.948516e+10
8.501086e+04, 9.727334e+10
8.509587e+04, 1.012577e+11
8.518096e+04, 9.888511e+10
8.526614e+04, 1.021393e+11
8.535141e+04, 9.783819e+10
8.543676e+04, 9.789259e+10
8.552220e+04, 9.791659e+10
8.560772e+04, 9.636562e+10
8.569333e+04, 9.645107e+10
8.577902e+04, 9.827275e+10
8.586480e+04, 9.647712e+10
8.595067e+04, 9.687166e+10
8.603662e+04, 9.739001e+10
8.612265e+04, 9.643102e+10
8.620878e+04, 9.384562e+10
8.629499e+04, 9.488316e+10
8.638128e+04, 9.699216e+10
8.646766e+04, 9.470809e+10
8.655413e+04, 9.392660e+10
8.664068e+04, 9.549365e+10
8.672732e+04, 9.268867e+10
8.681405e+04, 9.054585e+10
8.690087e+04, 9.481325e+10
8.698777e+04, 9.730963e+10
8.707475e+04, 9.112858e+10
8.716183e+04, 9.097175e+10
8.724899e+04, 9.152963e+10
8.733624e+04, 8.967652e+10
8.742358e+04, 9.081985e+10
8.751100e+04, 8.982236e+10
8.759851e+04, 8.729976e+10
8.768611e+04, 8.902714e+10
8.777379e+04, 9.107379e+10
8.786157e+04, 8.877556e+10
8.794943e+04, 8.988856e+10
8.803738e+04, 8.664724e+10
8.812542e+04, 8.823151e+10
8.821354e+04, 8.715014e+10
8.830176e+04, 8.841604e+10
8.839006e+04, 8.702711e+10
8.847845e+04, 8.897818e+10
8.856693e+04, 8.588295e+10
8.865549e+04, 8.669688e+10
8.874415e+04, 8.740824e+10
8.883289e+04, 8.704719e+10
8.892173e+04, 8.511699e+10
8.901065e+04, 8.665900e+10
8.909966e+04, 8.474480e+10
8.918876e+04, 8.458412e+10
8.927795e+04, 8.641765e+10
8.936722e+04, 8.529147e+10
8.945659e+04, 8.235118e+10
8.954605e+04, 8.387703e+10
8.963559e+04, 8.367749e+10
8.972523e+04, 8.255744e+10
8.981496e+04, 8.133081e+10
8.990477e+04, 8.441662e+10
8.999467e+04, 8.257811e+10
9.008467e+04, 8.370413e+10
9.017475e+04, 8.150492e+10
9.026493e+04, 8.219269e+10
9.035519e+04, 8.109581e+10
9.044555e+04, 8.245561e+10
9.053599e+04, 8.208587e+10
9.062653e+04, 7.952553e+10
9.071716e+04, 8.087322e+10
9.080787e+04, 8.143150e+10
9.089868e+04, 7.879882e+10
9.098958e+04, 8.092209e+10
9.108057e+04, 7.863210e+10
9.117165e+04, 7.963635e+10
9.126282e+04, 7.839703e+10
9.135409e+04, 7.815405e+10
9.144544e+04, 7.975324e+10
9.153688e+04, 7.664041e+10
9.162842e+04, 7.895728e+10
9.172005e+04, 7.621337e+10
9.181177e+04, 7.821049e+10
9.190358e+04, 7.724513e+10
9.199549e+04, 7.564496e+10
9.208748e+04, 7.695490e+10
9.217957e+04, 7.687684e+10
9.227175e+04, 7.607577e+10
9.236402e+04, 7.640566e+10
9.245638e+04, 7.523338e+10
9.254884e+04, 7.369729e+10
9.264139e+04, 7.460533e+10
9.273403e+04, 7.444100e+10
9.282676e+04, 7.429478e+10
9.291959e+04, 7.372968e+10
9.301251e+04, 7.325955e+10
9.310552e+04, 7.454011e+10
9.319863e+04, 7.291086e+10
9.329183e+04, 7.234292e+10
9.338512e+04, 7.200172e+10
9.347850e+04, 7.348623e+10
9.357198e+04, 7.308001e+10
9.366556e+04, 7.307030e+10
9.375922e+04, 7.120979e+10
9.385298e+04, 7.182664e+10
9.394683e+04, 7.063785e+10
9.404078e+04, 7.027830e+10
9.413482e+04, 7.024208e+10
9.422896e+04, 7.055104e+10
9.432318e+04, 7.126053e+10
9.441751e+04, 6.797313e+10
9.451192e+04, 7.065042e+10
9.460644e+04, 6.904129e+10
9.470104e+04, 7.024571e+10
9.479574e+04, 6.888513e+10
9.489054e+04, 6.969102e+10
9.498543e+04, 6.791756e+10
9.508042e+04, 6.849787e+10
9.517550e+04, 6.793377e+10
9.527067e+04, 6.848796e+10
9.536594e+04, 6.822012e+10
9.546131e+04, 6.898013e+10
9.555677e+04, 6.763646e+10
9.565233e+04, 6.745428e+10
9.574798e+04, 6.681306e+10
9.584373e+04, 6.599292e+10
9.593957e+04, 6.609789e+10
9.603551e+04, 6.463833e+10
9.613155e+04, 6.598344e+10
9.622768e+04, 6.488286e+10
9.632390e+04, 6.507099e+10
9.642023e+04, 6.458755e+10
9.651665e+04, 6.493865e+10
9.661317e+04, 6.405638e+10
9.670978e+04, 6.438586e+10
9.680649e+04, 6.323355e+10
9.690330e+04, 6.471492e+10
9.700020e+04, 6.322329e+10
9.709720e+04, 6.369910e+10
9.719430e+04, 6.320746e+10
9.729149e+04, 6.331254e+10
9.738878e+04, 6.286684e+10
9.748617e+04, 6.325651e+10
9.758366e+04, 6.264320e+10
9.768124e+04, 6.283702e+10
9.777892e+04, 6.043759e+10
9.787670e+04, 6.201263e+10
9.797458e+04, 6.239724e+10
9.807255e+04, 6.181865e+10
9.817062e+04, 6.035963e+10
9.826879e+04, 6.064669e+10
9.836706e+04, 6.121828e+10
9.846543e+04, 6.063128e+10
9.856390e+04, 5.871711e+10
9.866246e+04, 6.057484e+10
9.876112e+04, 6.126366e+10
9.885988e+04, 5.733763e+10
9.895874e+04, 5.708672e+10
9.905770e+04, 5.881568e+10
9.915676e+04, 5.805540e+10
9.925592e+04, 5.735938e+10
9.935517e+04, 5.873900e+10
9.945453e+04, 5.925555e+10
9.955398e+04, 5.788214e+10
9.965354e+04, 5.757825e+10
9.975319e+04, 5.779513e+10
9.985294e+04, 5.681659e+10
9.995280e+04, 5.681404e+10
1.000527e+05, 5.721309e+10
1.001528e+05, 5.669395e+10
1.002530e+05, 5.704791e+10
1.003532e+05, 5.642008e+10
1.004536e+05, 5.698599e+10
1.005540e+05, 5.599277e+10
1.006546e+05, 5.409926e+10
1.007552e+05, 5.489593e+10
1.008560e+05, 5.393562e+10
1.009568e+05, 5.476674e+10
1.010578e+05, 5.463368e+10
1.011588e+05, 5.423791e+10
1.012600e+05, 5.478260e+10
1.013613e+05, 5.387079e+10
1.014626e+05, 5.392478e+10
1.015641e+05, 5.436279e+10
1.016657e+05, 5.447655e+10
1.017673e+05, 5.315610e+10
1.018691e+05, 5.276534e+10
1.019710e+05, 5.401490e+10
1.020729e+05, 5.281644e+10
1.021750e+05, 5.165772e+10
1.022772e+05, 5.259646e+10
1.023795e+05, 5.148105e+10
1.024818e+05, 5.212460e+10
1.025843e+05, 5.230294e+10
1.026869e+05, 5.172554e+10
1.027896e+05, 5.050337e+10
1.028924e+05, 5.124241e+10
1.029953e+05, 5.156088e+10
1.030983e+05, 5.077207e+10
1.032014e+05, 4.948689e+10
1.033046e+05, 4.997801e+10
1.034079e+05, 5.024974e+10
1.035113e+05, 5.053308e+10
1.036148e+05, 4.904437e+10
1.037184e+05, 4.962354e+10
1.038221e+05, 4.950530e+10
1.039259e+05, 4.960548e+10
1.040299e+05, 4.778654e+10
1.041339e+05, 4.943657e+10
1.042380e+05, 4.757310e+10
1.043423e+05, 4.744007e+10
1.044466e+05, 4.868255e+10
1.045511e+05, 4.781186e+10
1.046556e+05, 4.783987e+10
1.047603e+05, 4.660365e+10
1.048650e+05, 4.764126e+10
1.049699e+05, 4.778947e+10
1.050749e+05, 4.628930e+10
1.051799e+05, 4.705607e+10
1.052851e+05, 4.690525e+10
1.053904e+05, 4.708602e+10
1.054958e+05, 4.632328e+10
1.056013e+05, 4.594216e+10
1.057069e+05, 4.582596e+10
1.058126e+05, 4.578954e+10
1.059184e+05, 4.547525e+10
1.060243e+05, 4.454863e+10
1.061303e+05, 4.393087e+10
1.062365e+05, 4.621079e+10
1.063427e+05, 4.430617e+10
1.064491e+05, 4.556340e+10
1.065555e+05, 4.449990e+10
1.066621e+05, 4.494177e+10
1.067687e+05, 4.460684e+10
1.068755e+05, 4.363429e+10
1.069824e+05, 4.472379e+10
1.070894e+05, 4.241994e+10
1.071964e+05, 4.377549e+10
1.073036e+05, 4.317768e+10
1.074109e+05, 4.289690e+10
1.075184e+05, 4.223418e+10
1.076259e+05, 4.292002e+10
1.077335e+05, 4.306665e+10
1.078412e+05, 4.194463e+10
1.079491e+05, 4.176796e+10
1.080570e+05, 4.283904e+10
1.081651e+05, 4.188267e+10
1.082732e+05, 4.107588e+10
1.083815e+05, 4.296296e+10
1.084899e+05, 4.130640e+10
1.085984e+05, 4.206448e+10
1.087070e+05, 4.146106e+10
1.088157e+05, 4.107053e+10
1.089245e+05, 3.961204e+10
1.090334e+05, 4.010188e+10
1.091425e+05, 4.075301e+10
1.092516e+05, 4.051496e+10
1.093609e+05, 3.951244e+10
1.094702e+05, 3.991337e+10
1.095797e+05, 4.103589e+10
1.096893e+05, 3.916632e+10
1.097990e+05, 3.884221e+10
1.099088e+05, 3.861159e+10
1.100187e+05, 3.967488e+10
1.101287e+05, 3.931938e+10
1.102388e+05, 3.889705e+10
1.103491e+05, 3.941786e+10
1.104594e+05, 3.737291e+10
1.105699e+05, 3.731959e+10
1.106804e+05, 3.825226e+10
1.107911e+05, 3.800040e+10
1.109019e+05, 3.766521e+10
1.110128e+05, 3.858022e+10
1.111238e+05, 3.688426e+10
1.112349e+05, 3.782953e+10
1.113462e+05, 3.701604e+10
1.114575e+05, 3.858866e+10
1.115690e+05, 3.722581e+10
1.116806e+05, 3.714164e+10
1.117922e+05, 3.632310e+10
1.119040e+05, 3.670931e+10
1.120159e+05, 3.558129e+10
1.121279e+05, 3.650387e+10
1.122401e+05, 3.598290e+10
1.123523e+05, 3.620694e+10
1.124647e+05, 3.631454e+10
1.125771e+05, 3.577237e+10
1.126897e+05, 3.561896e+10
1.128024e+05, 3.607731e+10
1.129152e+05, 3.504905e+10
1.130281e+05, 3.467540e+10
1.131411e+05, 3.437754e+10
1.132543e+05, 3.483717e+10
1.133675e+05, 3.472956e+10
1.134809e+05, 3.532655e+10
1.135944e+05, 3.442574e+10
1.137080e+05, 3.412082e+10
1.138217e+05, 3.453301e+10
1.139355e+05, 3.419893e+10
1.140494e+05, 3.456336e+10
1.141635e+05, 3.526696e+10
1.142777e+05, 3.372246e+10
1.143919e+05, 3.301140e+10
1.145063e+05, 3.275508e+10
1.146208e+05, 3.408367e+10
1.147355e+05, 3.297010e+10
1.148502e+05, 3.277011e+10
1.149650e+05, 3.315057e+10
1.150800e+05, 3.302805e+10
1.151951e+05, 3.249026e+10
1.153103e+05, 3.260825e+10
1.154256e+05, 3.184456e+10
1.155410e+05, 3.143425e+10
1.156566e+05, 3.189451e+10
1.157722e+05, 3.167625e+10
1.158880e+05, 3.187889e+10
1.160039e+05, 3.069323e+10
1.161199e+05, 3.124070e+10
1.162360e+05, 3.164367e+10
1.163522e+05, 3.121654e+10
1.164686e+05, 3.158078e+10
1.165851e+05, 3.166271e+10
1.167016e+05, 3.145487e+10
1.168183e+05, 3.099761e+10
1.169352e+05, 3.091283e+10
1.170521e+05, 3.100643e+10
1.171691e+05, 3.026499e+10
1.172863e+05, 3.005450e+10
1.174036e+05, 2.951781e+10
1.175210e+05, 2.989303e+10
1.176385e+05, 2.977669e+10
1.177562e+05, 2.982445e+10
1.178739e+05, 3.013848e+10
1.179918e+05, 2.915319e+10
1.181098e+05, 2.988949e+10
1.182279e+05, 2.940063e+10
1.183461e+05, 2.856075e+10
1.184645e+05, 3.019038e+10
1.185829e+05, 2.830602e+10
1.187015e+05, 2.933997e+10
1.188202e+05, 2.976275e+10
1.189390e+05, 2.920650e+10
1.190580e+05, 2.780568e+10
1.191770e+05, 2.841417e+10
1.192962e+05, 2.816681e+10
1.194155e+05, 2.926384e+10
1.195349e+05, 2.824042e+10
1.196545e+05, 2.767883e+10
1.197741e+05, 2.901245e+10
1.198939e+05, 2.820718e+10
1.200138e+05, 2.772786e+10
1.201338e+05, 2.786419e+10
1.202539e+05, 2.713424e+10
1.203742e+05, 2.826006e+10
1.204946e+05, 2.684473e+10
1.206151e+05, 2.699055e+10
1.207357e+05, 2.820947e+10
1.208564e+05, 2.698397e+10
1.209773e+05, 2.712052e+10
1.210982e+05, 2.717644e+10
1.212193e+05, 2.647025e+10
1.213406e+05, 2.726347e+10
1.214619e+05, 2.597286e+10
1.215834e+05, 2.568404e+10
1.217049e+05, 2.706952e+10
1.218266e+05, 2.679220e+10
1.219485e+05, 2.644202e+10
1.220704e+05, 2.615726e+10
1.221925e+05, 2.594121e+10
1.223147e+05, 2.666842e+10
1.224370e+05, 2.558632e+10
1.225594e+05, 2.560434e+10
1.226820e+05, 2.568533e+10
1.228047e+05, 2.507566e+10
1.229275e+05, 2.547322e+10
1.230504e+05, 2.572597e+10
1.231735e+05, 2.474067e+10
1.232966e+05, 2.528243e+10
1.234199e+05, 2.557869e+10
1.235433e+05, 2.499509e+10
1.236669e+05, 2.448814e+10
1.237906e+05, 2.496242e+10
1.239144e+05, 2.523590e+10
1.240383e+05, 2.428999e+10
1.241623e+05, 2.415123e+10
1.242865e+05, 2.370966e+10
1.244108e+05, 2.378566e+10
1.245352e+05, 2.373223e+10
1.246597e+05, 2.440570e+10
1.247844e+05, 2.384297e+10
1.249091e+05, 2.407406e+10
1.250341e+05, 2.381907e+10
1.251591e+05, 2.373751e+10
1.252842e+05, 2.319951e+10
1.254095e+05, 2.320155e+10
1.255349e+05, 2.325918e+10
1.256605e+05, 2.352310e+10
1.257861e+05, 2.329171e+10
1.259119e+05, 2.306279e+10
1.260378e+05, 2.292071e+10
1.261639e+05, 2.354616e+10
1.262900e+05, 2.307720e+10
1.264163e+05, 2.262241e+10
1.265427e+05, 2.223575e+10
1.266693e+05, 2.178284e+10
1.267960e+05, 2.220742e+10
1.269227e+05, 2.285414e+10
1.270497e+05, 2.254108e+10
1.271767e+05, 2.266861e+10
1.273039e+05, 2.229055e+10
1.274312e+05, 2.295184e+10
1.275586e+05, 2.189535e+10
1.276862e+05, 2.172694e+10
1.278139e+05, 2.141103e+10
1.279417e+05, 2.146349e+10
1.280696e+05, 2.124152e+10
1.281977e+05, 2.159413e+10
1.283259e+05, 2.183465e+10
1.284542e+05, 2.129635e+10
1.285827e+05, 2.151269e+10
1.287113e+05, 2.174172e+10
1.288400e+05, 2.198337e+10
1.289688e+05, 2.119592e+10
1.290978e+05, 2.128639e+10
1.292269e+05, 2.059743e+10
1.293561e+05, 2.060996e+10
1.294855e+05, 2.098364e+10
1.296149e+05, 2.079751e+10
1.297446e+05, 2.061372e+10
1.298743e+05, 2.031659e+10
1.300042e+05, 2.084867e+10
1.301342e+05, 2.049866e+10
1.302643e+05, 1.988753e+10
1.303946e+05, 2.025952e+10
1.305250e+05, 2.005077e+10
1.306555e+05, 2.040084e+10
1.307862e+05, 2.005765e+10
1.309169e+05, 1.955042e+10
1.310479e+05, 2.045631e+10
1.311789e+05, 1.997776e+10
1.313101e+05, 2.005785e+10
1.314414e+05, 1.936842e+10
1.315728e+05, 1.954804e+10
1.317044e+05, 1.941041e+10
1.318361e+05, 1.906266e+10
1.319680e+05, 1.982370e+10
1.320999e+05, 1.845738e+10
1.322320e+05, 1.905494e+10
1.323643e+05, 1.923298e+10
1.324966e+05, 1.939114e+10
1.326291e+05, 1.863283e+10
1.327617e+05, 1.942453e+10
1.328945e+05, 1.860390e+10
1.330274e+05, 1.884807e+10
1.331604e+05, 1.848497e+10
1.332936e+05, 1.856353e+10
1.334269e+05, 1.826966e+10
1.335603e+05, 1.819306e+10
1.336939e+05, 1.865767e+10
1.338276e+05, 1.852284e+10
1.339614e+05, 1.871587e+10
1.340954e+05, 1.867318e+10
1.342294e+05, 1.793068e+10
1.343637e+05, 1.821332e+10
1.344980e+05, 1.770143e+10
1.346325e+05, 1.795781e+10
1.347672e+05, 1.782029e+10
1.349019e+05, 1.767971e+10
1.350368e+05, 1.804058e+10
1.351719e+05, 1.802200e+10
1.353070e+05, 1.735040e+10
1.354424e+05, 1.715325e+10
1.355778e+05, 1.717559e+10
1.357134e+05, 1.703938e+10
1.358491e+05, 1.749010e+10
1.359849e+05, 1.735387e+10
1.361209e+05, 1.719252e+10
1.362570e+05, 1.721891e+10
1.363933e+05, 1.662236e+10
1.365297e+05, 1.669605e+10
1.366662e+05, 1.727369e+10
1.368029e+05, 1.734413e+10
1.369397e+05, 1.649315e+10
1.370766e+05, 1.657737e+10
1.372137e+05, 1.646326e+10
1.373509e+05, 1.691199e+10
1.374883e+05, 1.635871e+10
1.376258e+05, 1.583808e+10
1.377634e+05, 1.614771e+10
1.379012e+05, 1.647316e+10
1.380391e+05, 1.673617e+10
1.381771e+05, 1.631460e+10
1.383153e+05, 1.658252e+10
1.384536e+05, 1.604423e+10
1.385920e+05, 1.590117e+10
1.387306e+05, 1.638833e+10
1.388694e+05, 1.628503e+10
1.390082e+05, 1.602662e+10
1.391472e+05, 1.585769e+10
1.392864e+05, 1.608386e+10
1.394257e+05, 1.588483e+10
1.395651e+05, 1.586101e+10
1.397047e+05, 1.532846e+10
1.398444e+05, 1.578088e+10
1.399842e+05, 1.543766e+10
1.401242e+05, 1.518956e+10
1.402643e+05, 1.561197e+10
1.404046e+05, 1.542041e+10
1.405450e+05, 1.533930e+10
1.406855e+05, 1.480686e+10
1.408262e+05, 1.528698e+10
1.409670e+05, 1.536159e+10
1.411080e+05, 1.508426e+10
1.412491e+05, 1.451925e+10
1.413904e+05, 1.467148e+10
1.415318e+05, 1.461347e+10
1.416733e+05, 1.434449e+10
1.418150e+05, 1.460229e+10
1.419568e+05, 1.443478e+10
1.420987e+05, 1.403712e+10
1.422408e+05, 1.469297e+10
1.423831e+05, 1.455819e+10
1.425255e+05, 1.480945e+10
1.426680e+05, 1.461013e+10
1.428107e+05, 1.451445e+10
1.429535e+05, 1.444927e+10
1.430964e+05, 1.457002e+10
1.432395e+05, 1.380356e+10
1.433828e+05, 1.415998e+10
1.435261e+05, 1.416243e+10
1.436697e+05, 1.406202e+10
1.438133e+05, 1.397848e+10
1.439571e+05, 1.397007e+10
1.441011e+05, 1.381450e+10
1.442452e+05, 1.375985e+10
1.443894e+05, 1.378900e+10
1.445338e+05, 1.355336e+10
1.446784e+05, 1.351181e+10
1.448231e+05, 1.331728e+10
1.449679e+05, 1.314117e+10
1.451128e+05, 1.376083e+10
1.452580e+05, 1.337276e+10
1.454032e+05, 1.346589e+10
1.455486e+05, 1.344459e+10
1.456942e+05, 1.369317e+10
1.458399e+05, 1.324496e+10
1.459857e+05, 1.322186e+10
1.461317e+05, 1.342742e+10
1.462778e+05, 1.255673e+10
1.464241e+05, 1.266512e+10
1.465705e+05, 1.223675e+10
1.467171e+05, 1.271040e+10
1.468638e+05, 1.275447e+10
1.470107e+05, 1.267641e+10
1.471577e+05, 1.238387e+10
1.473048e+05, 1.271099e+10
1.474521e+05, 1.273800e+10
1.475996e+05, 1.291317e+10
1.477472e+05, 1.268622e+10
1.478949e+05, 1.268350e+10
1.480428e+05, 1.293590e+10
1.481909e+05, 1.258675e+10
1.483391e+05, 1.244048e+10
1.484874e+05, 1.238466e+10
1.486359e+05, 1.228187e+10
1.487845e+05, 1.230550e+10
1.489333e+05, 1.204988e+10
1.490823e+05, 1.224972e+10
1.492313e+05, 1.192364e+10
1.493806e+05, 1.226461e+10
1.495299e+05, 1.210695e+10
1.496795e+05, 1.176949e+10
1.498292e+05, 1.168634e+10
1.499790e+05, 1.221055e+10
1.501290e+05, 1.181730e+10
1.502791e+05, 1.204753e+10
1.504294e+05, 1.123330e+10
1.505798e+05, 1.178731e+10
1.507304e+05, 1.210185e+10
1.508811e+05, 1.179740e+10
1.510320e+05, 1.157489e+10
1.511830e+05, 1.154788e+10
1.513342e+05, 1.126518e+10
1.514855e+05, 1.170065e+10
1.516370e+05, 1.157958e+10
1.517887e+05, 1.100549e+10
1.519405e+05, 1.134967e+10
1.520924e+05, 1.162238e+10
1.522445e+05, 1.120687e+10
1.523967e+05, 1.122138e+10
1.525491e+05, 1.089348e+10
1.527017e+05, 1.113078e+10
1.528544e+05, 1.077531e+10
1.530072e+05, 1.089659e+10
1.531602e+05, 1.073922e+10
1.533134e+05, 1.080305e+10
1.534667e+05, 1.065302e+10
1.536202e+05, 1.075695e+10
1.537738e+05, 1.063373e+10
1.539276e+05, 1.058004e+10
1.540815e+05, 1.097392e+10
1.542356e+05, 1.052781e+10
1.543898e+05, 1.058563e+10
1.545442e+05, 1.042125e+10
1.546988e+05, 1.045219e+10
1.548534e+05, 1.048480e+10
1.550083e+05, 1.053657e+10
1.551633e+05, 1.041654e+10
1.553185e+05, 1.038334e+10
1.554738e+05, 1.043328e+10
1.556293e+05, 1.024216e+10
1.557849e+05, 1.032712e+10
1.559407e+05, 1.040700e+10
1.560966e+05, 1.035757e+10
1.562527e+05, 1.034107e+10
1.564090e+05, 9.983308e+09
1.565654e+05, 1.008328e+10
1.567219e+05, 1.016549e+10
1.568787e+05, 1.008004e+10
1.570355e+05, 1.004491e+10
1.571926e+05, 9.882746e+09
1.573498e+05, 1.003167e+10
1.575071e+05, 9.719925e+09
1.576646e+05, 9.747396e+09
1.578223e+05, 1.004188e+10
1.579801e+05, 9.782870e+09
1.581381e+05, 9.557731e+09
1.582962e+05, 9.831258e+09
1.584545e+05, 9.645165e+09
1.586130e+05, 9.410554e+09
1.587716e+05, 9.790381e+09
1.589304e+05, 9.314150e+09
1.590893e+05, 9.465927e+09
1.592484e+05, 9.078968e+09
1.594076e+05, 9.539967e+09
1.595670e+05, 9.236964e+09
1.597266e+05, 9.164288e+09
1.598863e+05, 9.034308e+09
1.600462e+05, 9.095356e+09
1.602063e+05, 9.084079e+09
1.603665e+05, 9.261273e+09
1.605268e+05, 9.038176e+09
1.606874e+05, 9.262843e+09
1.608481e+05, 8.978594e+09
1.610089e+05, 8.970229e+09
1.611699e+05, 8.817000e+09
1.613311e+05, 9.172909e+09
1.614924e+05, 8.849479e+09
1.616539e+05, 8.715888e+09
1.618156e+05, 8.962001e+09
1.619774e+05, 8.857767e+09
1.621394e+05, 8.606308e+09
1.623015e+05, 8.851280e+09
1.624638e+05, 8.920606e+09
1.626263e+05, 8.665295e+09
1.627889e+05, 8.509741e+09
1.629517e+05, 8.763925e+09
1.631146e+05, 8.702826e+09
1.632777e+05, 8.474150e+09
1.634410e+05, 8.828433e+09
1.636045e+05, 8.922161e+09
1.637681e+05, 8.546046e+09
1.639318e+05, 8.238909e+09
1.640958e+05, 8.471817e+09
1.642599e+05, 8.434104e+09
1.644241e+05, 8.454457e+09
1.645885e+05, 8.550332e+09
1.647531e+05, 8.020447e+09
1.649179e+05, 8.328206e+09
1.650828e+05, 8.373406e+09
1.652479e+05, 8.292684e+09
1.654131e+05, 8.240803e+09
1.655785e+05, 7.756091e+09
1.657441e+05, 7.981283e+09
1.659099e+05, 8.061149e+09
1.660758e+05, 7.960844e+09
1.662419e+05, 7.797420e+09
1.664081e+05, 7.847939e+09
1.665745e+05, 7.849896e+09
1.667411e+05, 7.983790e+09
1.669078e+05, 8.048484e+09
1.670747e+05, 7.820347e+09
1.672418e+05, 7.729555e+09
1.674090e+05, 7.883089e+09
1.675765e+05, 7.607211e+09
1.677440e+05, 8.068302e+09
1.679118e+05, 7.699774e+09
1.680797e+05, 7.745357e+09
1.682478e+05, 7.544567e+09
1.684160e+05, 7.363164e+09
1.685844e+05, 7.730741e+09
1.687530e+05, 7.362903e+09
1.689218e+05, 7.503265e+09
1.690907e+05, 7.573812e+09
1.692598e+05, 7.349115e+09
1.694290e+05, 7.627417e+09
1.695985e+05, 7.554842e+09
1.697681e+05, 7.450415e+09
1.699378e+05, 7.350267e+09
1.701078e+05, 7.516155e+09
1.702779e+05, 7.423029e+09
1.704482e+05, 7.442215e+09
1.706186e+05, 7.345603e+09
1.707892e+05, 7.184611e+09
1.709600e+05, 7.279592e+09
1.711310e+05, 7.245890e+09
1.713021e+05, 6.977636e+09
1.714734e+05, 7.050135e+09
1.716449e+05, 7.118873e+09
1.718165e+05, 7.065458e+09
1.719883e+05, 6.973378e+09
1.721603e+05, 7.049792e+09
1.723325e+05, 6.808237e+09
1.725048e+05, 6.809449e+09
1.726773e+05, 6.820862e+09
1.728500e+05, 6.818518e+09
1.730229e+05, 6.961722e+09
1.731959e+05, 6.883107e+09
1.733691e+05, 6.762817e+09
1.735424e+05, 6.736939e+09
1.737160e+05, 6.766852e+09
1.738897e+05, 6.906229e+09
1.740636e+05, 6.605312e+09
1.742377e+05, 6.891597e+09
1.744119e+05, 6.571693e+09
1.745863e+05, 6.617083e+09
1.747609e+05, 6.456119e+09
1.749357e+05, 6.693591e+09
1.751106e+05, 6.618267e+09
1.752857e+05, 6.383411e+09
1.754610e+05, 6.386563e+09
1.756364e+05, 6.546981e+09
1.758121e+05, 6.469454e+09
1.759879e+05, 6.408764e+09
1.761639e+05, 6.450760e+09
1.763400e+05, 6.215307e+09
1.765164e+05, 6.306453e+09
1.766929e+05, 6.343801e+09
1.768696e+05, 6.406292e+09
1.770465e+05, 6.292773e+09
1.772235e+05, 6.228559e+09
1.774007e+05, 6.273654e+09
1.775781e+05, 6.218606e+09
1.777557e+05, 6.089918e+09
1.779335e+05, 6.299173e+09
1.781114e+05, 6.216318e+09
1.782895e+05, 6.143415e+09
1.784678e+05, 6.131386e+09
1.786463e+05, 6.123168e+09
1.788249e+05, 6.196039e+09
1.790037e+05, 6.172030e+09
1.791827e+05, 6.037975e+09
1.793619e+05, 5.889263e+09
1.795413e+05, 5.918742e+09
1.797208e+05, 6.090728e+09
1.799006e+05, 6.295121e+09
1.800805e+05, 5.942300e+09
1.802605e+05, 5.754845e+09
1.804408e+05, 5.931934e+09
1.806212e+05, 5.800970e+09
1.808019e+05, 5.731908e+09
1.809827e+05, 5.773105e+09
1.811636e+05, 5.955892e+09
1.813448e+05, 5.710312e+09
1.815262e+05, 5.627289e+09
1.817077e+05, 5.535968e+09
1.818894e+05, 5.621107e+09
1.820713e+05, 5.777327e+09
1.822533e+05, 5.646502e+09
1.824356e+05, 5.588243e+09
1.826180e+05, 5.597214e+09
1.828007e+05, 5.579457e+09
1.829835e+05, 5.518995e+09
1.831664e+05, 5.540822e+09
1.833496e+05, 5.629886e+09
1.835330e+05, 5.564642e+09
1.837165e+05, 5.466318e+09
1.839002e+05, 5.424717e+09
1.840841e+05, 5.461610e+09
1.842682e+05, 5.313497e+09
1.844525e+05, 5.585891e+09
1.846369e+05, 5.457771e+09
1.848215e+05, 5.518981e+09
1.850064e+05, 5.285166e+09
1.851914e+05, 5.195828e+09
1.853766e+05, 5.244167e+09
1.855619e+05, 5.120887e+09
1.857475e+05, 5.298432e+09
1.859333e+05, 5.085371e+09
1.861192e+05, 5.179697e+09
1.863053e+05, 5.126624e+09
1.864916e+05, 5.185923e+09
1.866781e+05, 5.110569e+09
1.868648e+05, 5.283093e+09
1.870516e+05, 5.120764e+09
1.872387e+05, 4.946570e+09
1.874259e+05, 5.116578e+09
1.876134e+05, 4.930594e+09
1.878010e+05, 5.064267e+09
1.879888e+05, 5.122634e+09
1.881768e+05, 5.005009e+09
1.883649e+05, 4.991143e+09
1.885533e+05, 4.948597e+09
1.887419e+05, 4.930753e+09
1.889306e+05, 4.869769e+09
1.891195e+05, 4.961166e+09
1.893086e+05, 4.868073e+09
1.894980e+05, 4.822963e+09
1.896875e+05, 4.844667e+09
1.898771e+05, 4.893369e+09
1.900670e+05, 4.775489e+09
1.902571e+05, 4.933891e+09
1.904473e+05, 4.762855e+09
1.906378e+05, 4.840105e+09
1.908284e+05, 4.726925e+09
1.910193e+05, 4.893118e+09
1.912103e+05, 4.851238e+09
1.914015e+05, 4.678452e+09
1.915929e+05, 4.825263e+09
1.917845e+05, 4.518047e+09
1.919763e+05, 4.587453e+09
1.921682e+05, 4.451366e+09
1.923604e+05, 4.536157e+09
1.925528e+05, 4.584613e+09
1.927453e+05, 4.600458e+09
1.929381e+05, 4.490086e+09
1.931310e+05, 4.552382e+09
1.933241e+05, 4.503750e+09
1.935175e+05, 4.412808e+09
1.937110e+05, 4.526308e+09
1.939047e+05, 4.607174e+09
1.940986e+05, 4.434559e+09
1.942927e+05, 4.321512e+09
1.944870e+05, 4.417442e+09
1.946815e+05, 4.440362e+09
1.948762e+05, 4.381529e+09
1.950710e+05, 4.519310e+09
1.952661e+05, 4.371780e+09
1.954614e+05, 4.417293e+09
1.956568e+05, 4.225108e+09
1.958525e+05, 4.147381e+09
1.960483e+05, 4.364936e+09
1.962444e+05, 4.114140e+09
1.964406e+05, 4.147673e+09
1.966371e+05, 4.199915e+09
1.968337e+05, 4.244851e+09
1.970305e+05, 4.286685e+09
1.972276e+05, 4.257699e+09
1.974248e+05, 4.130378e+09
1.976222e+05, 4.218570e+09
1.978198e+05, 4.187787e+09
1.980177e+05, 4.069890e+09
1.982157e+05, 4.029500e+09
1.984139e+05, 4.039299e+09
1.986123e+05, 4.102231e+09
1.988109e+05, 4.062887e+09
1.990097e+05, 3.984658e+09
1.992087e+05, 4.089193e+09
1.994080e+05, 3.932335e+09
1.996074e+05, 3.993361e+09
1.998070e+05, 4.129277e+09