wavelength[Angstrom], flux[erg / (cm3 s)]
1.000000e+03, 6.073332e-15
1.001000e+03, 6.575508e-16
1.002001e+03, 3.037427e-18
1.003003e+03, 1.429622e-17
1.004006e+03, 9.354704e-18
1.005010e+03, 3.542192e-16
1.006015e+03, 5.080029e-18
1.007021e+03, 1.118454e-16
1.008028e+03, 3.340676e-17
1.009036e+03, 8.074803e-18
1.010045e+03, 4.872858e-18
1.011055e+03, 4.508168e-17
1.012066e+03, 4.878764e-18
1.013078e+03, 3.945121e-18
1.014091e+03, 2.575671e-18
1.015105e+03, 2.312687e-16
1.016121e+03, 3.551214e-16
1.017137e+03, 5.118327e-18
1.018154e+03, 8.075203e-17
1.019172e+03, 1.244788e-16
1.020191e+03, 1.717014e-16
1.021211e+03, 6.620303e-16
1.022233e+03, 1.360890e-15
1.023255e+03, 4.788410e-16
1.024278e+03, 4.077507e-16
1.025302e+03, 3.314394e-18
1.026328e+03, 8.426381e-17
1.027354e+03, 6.768361e-15
1.028381e+03, 6.433198e-17
1.029410e+03, 2.380954e-16
1.030439e+03, 1.669756e-15
1.031470e+03, 2.920650e-16
1.032501e+03, 7.808136e-15
1.033533e+03, 1.586926e-15
1.034567e+03, 2.018136e-15
1.035602e+03, 1.219746e-15
1.036637e+03, 7.755381e-17
1.037674e+03, 2.225610e-15
1.038712e+03, 9.235387e-16
1.039750e+03, 1.037460e-15
1.040790e+03, 2.858020e-16
1.041831e+03, 3.570763e-15
1.042873e+03, 1.097163e-14
1.043915e+03, 4.405089e-15
1.044959e+03, 3.653989e-14
1.046004e+03, 4.088441e-14
1.047050e+03, 3.917193e-14
1.048097e+03, 8.647147e-15
1.049145e+03, 1.099543e-15
1.050195e+03, 2.112652e-15
1.051245e+03, 5.317929e-16
1.052296e+03, 2.202283e-15
1.053348e+03, 1.154847e-15
1.054402e+03, 6.744066e-15
1.055456e+03, 1.773070e-14
1.056512e+03, 1.240444e-15
1.057568e+03, 3.960079e-15
1.058626e+03, 4.212962e-15
1.059684e+03, 5.991227e-14
1.060744e+03, 4.799887e-14
1.061805e+03, 6.050477e-15
1.062867e+03, 1.458744e-14
1.063929e+03, 5.406687e-14
1.064993e+03, 2.557650e-16
1.066058e+03, 7.234662e-14
1.067124e+03, 5.919501e-15
1.068191e+03, 3.655441e-13
1.069260e+03, 3.329561e-13
1.070329e+03, 7.923616e-15
1.071399e+03, 5.223679e-14
1.072471e+03, 2.897656e-13
1.073543e+03, 3.147750e-13
1.074617e+03, 1.850546e-14
1.075691e+03, 1.378614e-12
1.076767e+03, 1.759211e-12
1.077844e+03, 1.374211e-14
1.078922e+03, 2.031031e-14
1.080001e+03, 1.423514e-13
1.081081e+03, 2.383275e-14
1.082162e+03, 2.747998e-12
1.083244e+03, 5.243241e-12
1.084327e+03, 3.637062e-13
1.085411e+03, 1.009499e-13
1.086497e+03, 4.051277e-13
1.087583e+03, 9.113902e-13
1.088671e+03, 2.066968e-12
1.089759e+03, 7.737276e-13
1.090849e+03, 8.122790e-12
1.091940e+03, 4.835150e-12
1.093032e+03, 1.254956e-12
1.094125e+03, 1.391668e-14
1.095219e+03, 3.128379e-12
1.096314e+03, 4.657297e-12
1.097411e+03, 2.160764e-12
1.098508e+03, 4.732875e-12
1.099607e+03, 3.261510e-13
1.100706e+03, 1.441612e-13
1.101807e+03, 1.054391e-12
1.102909e+03, 1.356333e-10
1.104012e+03, 5.920772e-12
1.105116e+03, 1.214897e-11
1.106221e+03, 3.919375e-11
1.107327e+03, 2.858288e-11
1.108434e+03, 6.868678e-13
1.109543e+03, 4.142547e-13
1.110652e+03, 9.944832e-11
1.111763e+03, 2.365493e-10
1.112875e+03, 6.418374e-11
1.113988e+03, 1.947168e-11
1.115102e+03, 3.840251e-12
1.116217e+03, 6.444308e-13
1.117333e+03, 2.195099e-10
1.118450e+03, 3.337167e-10
1.119569e+03, 3.124699e-11
1.120688e+03, 4.271604e-11
1.121809e+03, 2.993810e-10
1.122931e+03, 1.004417e-10
1.124054e+03, 4.452925e-11
1.125178e+03, 4.292063e-11
1.126303e+03, 1.755986e-09
1.127429e+03, 3.414134e-10
1.128557e+03, 8.673559e-11
1.129685e+03, 9.226441e-11
1.130815e+03, 4.124163e-10
1.131946e+03, 8.160300e-11
1.133078e+03, 7.073117e-10
1.134211e+03, 8.898641e-10
1.135345e+03, 8.865407e-11
1.136480e+03, 1.656050e-09
1.137617e+03, 2.799791e-09
1.138754e+03, 1.480396e-09
1.139893e+03, 6.723760e-11
1.141033e+03, 2.150588e-09
1.142174e+03, 1.610459e-09
1.143316e+03, 9.779655e-10
1.144460e+03, 3.545991e-10
1.145604e+03, 2.515429e-10
1.146750e+03, 4.935998e-10
1.147896e+03, 1.316861e-09
1.149044e+03, 1.087070e-09
1.150193e+03, 1.200895e-09
1.151344e+03, 3.341832e-10
1.152495e+03, 1.363136e-09
1.153647e+03, 2.638722e-09
1.154801e+03, 1.651793e-09
1.155956e+03, 1.317859e-09
1.157112e+03, 2.303779e-09
1.158269e+03, 1.115635e-09
1.159427e+03, 7.285328e-10
1.160587e+03, 3.137666e-09
1.161747e+03, 2.162099e-10
1.162909e+03, 1.205407e-09
1.164072e+03, 8.791391e-10
1.165236e+03, 5.214227e-10
1.166401e+03, 8.833300e-11
1.167568e+03, 4.578930e-10
1.168735e+03, 1.610246e-09
1.169904e+03, 2.807034e-10
1.171074e+03, 6.695762e-10
1.172245e+03, 5.660486e-10
1.173417e+03, 1.454414e-09
1.174590e+03, 1.426475e-09
1.175765e+03, 5.004424e-10
1.176941e+03, 3.605538e-09
1.178118e+03, 4.072921e-09
1.179296e+03, 1.914391e-09
1.180475e+03, 2.020324e-09
1.181656e+03, 2.634482e-09
1.182837e+03, 2.039658e-09
1.184020e+03, 1.800948e-09
1.185204e+03, 1.112852e-09
1.186389e+03, 1.077709e-09
1.187576e+03, 2.310294e-09
1.188763e+03, 2.473918e-09
1.189952e+03, 2.559274e-09
1.191142e+03, 1.901689e-09
1.192333e+03, 9.600875e-10
1.193526e+03, 1.133676e-09
1.194719e+03, 5.230716e-08
1.195914e+03, 1.890972e-07
1.197110e+03, 1.252201e-06
1.198307e+03, 1.235193e-07
1.199505e+03, 5.309710e-07
1.200705e+03, 2.916370e-07
1.201905e+03, 1.284393e-07
1.203107e+03, 3.826181e-07
1.204310e+03, 3.792382e-07
1.205515e+03, 2.427526e-07
1.206720e+03, 3.799077e-07
1.207927e+03, 2.594224e-07
1.209135e+03, 4.864016e-07
1.210344e+03, 4.094609e-08
1.211554e+03, 1.170484e-07
1.212766e+03, 7.526598e-08
1.213979e+03, 1.312460e-08
1.215193e+03, 2.485376e-10
1.216408e+03, 1.230426e-09
1.217624e+03, 2.871536e-08
1.218842e+03, 5.538870e-08
1.220061e+03, 1.192798e-07
1.221281e+03, 2.289846e-07
1.222502e+03, 2.954581e-07
1.223724e+03, 8.046637e-07
1.224948e+03, 3.280390e-07
1.226173e+03, 1.133710e-06
1.227399e+03, 4.437385e-07
1.228627e+03, 6.342616e-07
1.229855e+03, 2.430788e-07
1.231085e+03, 8.508392e-07
1.232316e+03, 1.608478e-06
1.233549e+03, 1.169902e-06
1.234782e+03, 1.081868e-06
1.236017e+03, 6.056964e-07
1.237253e+03, 7.474401e-07
1.238490e+03, 1.265347e-06
1.239729e+03, 1.880695e-06
1.240968e+03, 8.206627e-07
1.242209e+03, 1.007765e-06
1.243452e+03, 1.335515e-06
1.244695e+03, 1.535824e-06
1.245940e+03, 7.513169e-07
1.247186e+03, 1.315435e-06
1.248433e+03, 1.523635e-06
1.249681e+03, 1.364528e-06
1.250931e+03, 1.232563e-06
1.252182e+03, 1.306179e-06
1.253434e+03, 1.188491e-06
1.254688e+03, 1.376320e-06
1.255942e+03, 8.181309e-07
1.257198e+03, 5.806590e-07
1.258455e+03, 6.023892e-07
1.259714e+03, 1.050166e-06
1.260974e+03, 6.149078e-07
1.262235e+03, 7.802037e-07
1.263497e+03, 6.904783e-07
1.264760e+03, 8.159814e-07
1.266025e+03, 7.128432e-07
1.267291e+03, 6.777407e-07
1.268558e+03, 5.717681e-07
1.269827e+03, 9.689971e-07
1.271097e+03, 7.002717e-07
1.272368e+03, 6.439425e-07
1.273640e+03, 1.047669e-06
1.274914e+03, 6.015181e-07
1.276189e+03, 6.426768e-07
1.277465e+03, 7.713095e-07
1.278742e+03, 6.165128e-07
1.280021e+03, 5.755934e-07
1.281301e+03, 1.076685e-06
1.282582e+03, 7.356237e-07
1.283865e+03, 1.308625e-06
1.285149e+03, 1.497511e-06
1.286434e+03, 8.491320e-07
1.287720e+03, 1.753339e-06
1.289008e+03, 1.891760e-06
1.290297e+03, 2.154804e-06
1.291588e+03, 2.845563e-06
1.292879e+03, 2.089707e-06
1.294172e+03, 3.455428e-06
1.295466e+03, 4.548118e-06
1.296762e+03, 4.974590e-06
1.298058e+03, 4.543733e-06
1.299356e+03, 5.838756e-06
1.300656e+03, 8.964075e-06
1.301956e+03, 1.258645e-05
1.303258e+03, 1.450477e-05
1.304562e+03, 1.484284e-05
1.305866e+03, 1.412720e-05
1.307172e+03, 1.113280e-05
1.308479e+03, 1.038080e-05
1.309788e+03, 9.119674e-06
1.311098e+03, 5.904252e-06
1.312409e+03, 3.920337e-06
1.313721e+03, 4.034423e-06
1.315035e+03, 3.149427e-06
1.316350e+03, 3.362026e-06
1.317666e+03, 3.710941e-06
1.318984e+03, 2.530088e-06
1.320303e+03, 2.938291e-06
1.321623e+03, 2.631897e-06
1.322945e+03, 2.012388e-06
1.324268e+03, 2.131934e-06
1.325592e+03, 2.396380e-06
1.326918e+03, 2.558039e-06
1.328244e+03, 3.553951e-06
1.329573e+03, 4.119027e-06
1.330902e+03, 6.700951e-06
1.332233e+03, 7.088307e-06
1.333565e+03, 8.255736e-06
1.334899e+03, 8.625533e-06
1.336234e+03, 8.056684e-06
1.337570e+03, 8.802194e-06
1.338908e+03, 7.869236e-06
1.340247e+03, 8.608320e-06
1.341587e+03, 9.943304e-06
1.342928e+03, 6.510336e-06
1.344271e+03, 9.094893e-06
1.345616e+03, 6.990659e-06
1.346961e+03, 7.395162e-06
1.348308e+03, 8.517405e-06
1.349656e+03, 7.150083e-06
1.351006e+03, 1.018536e-05
1.352357e+03, 1.498403e-05
1.353709e+03, 2.208107e-05
1.355063e+03, 2.839883e-05
1.356418e+03, 2.381957e-05
1.357775e+03, 2.424199e-05
1.359132e+03, 2.382577e-05
1.360492e+03, 1.745712e-05
1.361852e+03, 1.876363e-05
1.363214e+03, 1.634311e-05
1.364577e+03, 1.729474e-05
1.365942e+03, 1.323003e-05
1.367308e+03, 1.438038e-05
1.368675e+03, 1.188365e-05
1.370044e+03, 1.381746e-05
1.371414e+03, 1.139997e-05
1.372785e+03, 1.250817e-05
1.374158e+03, 1.174359e-05
1.375532e+03, 1.566088e-05
1.376908e+03, 1.512703e-05
1.378284e+03, 2.217004e-05
1.379663e+03, 2.441604e-05
1.381042e+03, 2.806823e-05
1.382423e+03, 3.406938e-05
1.383806e+03, 3.860445e-05
1.385190e+03, 4.490521e-05
1.386575e+03, 5.541662e-05
1.387961e+03, 6.882505e-05
1.389349e+03, 8.840674e-05
1.390739e+03, 9.852966e-05
1.392130e+03, 1.268749e-04
1.393522e+03, 1.527287e-04
1.394915e+03, 1.863537e-04
1.396310e+03, 2.594817e-04
1.397706e+03, 3.263917e-04
1.399104e+03, 4.338883e-04
1.400503e+03, 6.374803e-04
1.401904e+03, 6.912754e-04
1.403306e+03, 7.319265e-04
1.404709e+03, 8.338259e-04
1.406114e+03, 9.560326e-04
1.407520e+03, 1.109141e-03
1.408927e+03, 1.043378e-03
1.410336e+03, 1.092119e-03
1.411747e+03, 1.414606e-03
1.413158e+03, 1.094523e-03
1.414571e+03, 1.603067e-03
1.415986e+03, 1.345069e-03
1.417402e+03, 1.960745e-03
1.418819e+03, 1.927446e-03
1.420238e+03, 2.516440e-03
1.421658e+03, 2.104711e-03
1.423080e+03, 2.412175e-03
1.424503e+03, 2.355339e-03
1.425928e+03, 3.509190e-03
1.427354e+03, 2.669832e-03
1.428781e+03, 3.090822e-03
1.430210e+03, 3.530440e-03
1.431640e+03, 3.797137e-03
1.433072e+03, 3.552632e-03
1.434505e+03, 4.130658e-03
1.435939e+03, 4.141015e-03
1.437375e+03, 4.518368e-03
1.438813e+03, 5.240475e-03
1.440251e+03, 4.626776e-03
1.441692e+03, 4.500422e-03
1.443133e+03, 4.774889e-03
1.444576e+03, 5.754158e-03
1.446021e+03, 5.660992e-03
1.447467e+03, 4.599696e-03
1.448914e+03, 6.782433e-03
1.450363e+03, 7.144435e-03
1.451814e+03, 6.390174e-03
1.453266e+03, 7.427213e-03
1.454719e+03, 7.344800e-03
1.456174e+03, 7.860202e-03
1.457630e+03, 7.294833e-03
1.459087e+03, 7.544543e-03
1.460546e+03, 7.770024e-03
1.462007e+03, 9.481272e-03
1.463469e+03, 1.044111e-02
1.464932e+03, 9.514340e-03
1.466397e+03, 1.218144e-02
1.467864e+03, 1.220917e-02
1.469332e+03, 1.124188e-02
1.470801e+03, 1.319504e-02
1.472272e+03, 9.962585e-03
1.473744e+03, 1.073201e-02
1.475218e+03, 1.423673e-02
1.476693e+03, 1.432102e-02
1.478170e+03, 1.434493e-02
1.479648e+03, 1.451392e-02
1.481128e+03, 1.586239e-02
1.482609e+03, 1.713471e-02
1.484091e+03, 1.835872e-02
1.485575e+03, 2.037398e-02
1.487061e+03, 1.804169e-02
1.488548e+03, 2.057095e-02
1.490037e+03, 2.186676e-02
1.491527e+03, 2.228518e-02
1.493018e+03, 1.878556e-02
1.494511e+03, 1.922620e-02
1.496006e+03, 2.622423e-02
1.497502e+03, 2.473870e-02
1.498999e+03, 2.675230e-02
1.500498e+03, 2.839744e-02
1.501999e+03, 2.741372e-02
1.503501e+03, 2.771128e-02
1.505004e+03, 3.036153e-02
1.506509e+03, 3.301763e-02
1.508016e+03, 3.421739e-02
1.509524e+03, 3.561951e-02
1.511033e+03, 3.222375e-02
1.512544e+03, 2.704808e-02
1.514057e+03, 2.474943e-02
1.515571e+03, 2.146594e-02
1.517086e+03, 1.998509e-02
1.518603e+03, 1.739312e-02
1.520122e+03, 1.638025e-02
1.521642e+03, 1.370191e-02
1.523164e+03, 1.335574e-02
1.524687e+03, 1.278359e-02
1.526212e+03, 1.185564e-02
1.527738e+03, 1.154018e-02
1.529266e+03, 9.816161e-03
1.530795e+03, 9.681228e-03
1.532326e+03, 8.318879e-03
1.533858e+03, 6.974404e-03
1.535392e+03, 6.797208e-03
1.536927e+03, 7.366534e-03
1.538464e+03, 7.104662e-03
1.540003e+03, 7.738400e-03
1.541543e+03, 7.502369e-03
1.543084e+03, 8.808846e-03
1.544627e+03, 8.092745e-03
1.546172e+03, 8.585103e-03
1.547718e+03, 7.679128e-03
1.549266e+03, 5.992754e-03
1.550815e+03, 5.257160e-03
1.552366e+03, 4.514080e-03
1.553918e+03, 6.968935e-03
1.555472e+03, 8.235471e-03
1.557028e+03, 1.121093e-02
1.558585e+03, 1.581752e-02
1.560143e+03, 1.878338e-02
1.561703e+03, 2.285508e-02
1.563265e+03, 2.150208e-02
1.564828e+03, 2.953491e-02
1.566393e+03, 3.777953e-02
1.567960e+03, 3.841413e-02
1.569528e+03, 5.241755e-02
1.571097e+03, 6.810486e-02
1.572668e+03, 6.292419e-02
1.574241e+03, 6.278168e-02
1.575815e+03, 6.484810e-02
1.577391e+03, 8.724951e-02
1.578968e+03, 8.282430e-02
1.580547e+03, 5.413051e-02
1.582128e+03, 3.530862e-02
1.583710e+03, 6.613718e-02
1.585294e+03, 6.595175e-02
1.586879e+03, 6.818198e-02
1.588466e+03, 7.727421e-02
1.590054e+03, 6.902159e-02
1.591644e+03, 7.146783e-02
1.593236e+03, 4.015117e-02
1.594829e+03, 5.700280e-02
1.596424e+03, 6.152445e-02
1.598020e+03, 5.969856e-02
1.599618e+03, 6.215579e-02
1.601218e+03, 5.446388e-02
1.602819e+03, 5.466226e-02
1.604422e+03, 4.704643e-02
1.606027e+03, 5.019554e-02
1.607633e+03, 6.392124e-02
1.609240e+03, 3.316055e-02
1.610849e+03, 5.642353e-02
1.612460e+03, 3.810554e-02
1.614073e+03, 5.869982e-02
1.615687e+03, 6.270427e-02
1.617303e+03, 4.913578e-02
1.618920e+03, 7.210144e-02
1.620539e+03, 3.701125e-02
1.622159e+03, 6.202390e-02
1.623781e+03, 1.126866e-01
1.625405e+03, 1.158774e-01
1.627031e+03, 1.429260e-01
1.628658e+03, 2.228954e-01
1.630286e+03, 4.082863e-01
1.631917e+03, 2.484367e-01
1.633549e+03, 2.416876e-01
1.635182e+03, 1.622286e-01
1.636817e+03, 4.985625e-01
1.638454e+03, 2.019851e-01
1.640093e+03, 1.550753e-01
1.641733e+03, 3.611051e-01
1.643374e+03, 2.727329e-01
1.645018e+03, 4.668616e-01
1.646663e+03, 4.941188e-01
1.648309e+03, 6.229233e-01
1.649958e+03, 6.565698e-01
1.651608e+03, 2.891928e-01
1.653259e+03, 6.186495e-01
1.654913e+03, 5.416255e-01
1.656567e+03, 3.815098e-01
1.658224e+03, 4.523292e-01
1.659882e+03, 3.959882e-01
1.661542e+03, 7.128243e-01
1.663204e+03, 6.417229e-01
1.664867e+03, 1.008536e+00
1.666532e+03, 8.101153e-01
1.668198e+03, 4.113294e-01
1.669866e+03, 2.881657e-01
1.671536e+03, 4.999033e-01
1.673208e+03, 6.360719e-01
1.674881e+03, 8.941180e-01
1.676556e+03, 1.083215e+00
1.678233e+03, 1.051266e+00
1.679911e+03, 1.105856e+00
1.681591e+03, 6.767346e-01
1.683272e+03, 9.519288e-01
1.684956e+03, 1.529206e+00
1.686640e+03, 1.236237e+00
1.688327e+03, 9.479112e-01
1.690015e+03, 1.004663e+00
1.691705e+03, 2.084062e+00
1.693397e+03, 1.109981e+00
1.695091e+03, 2.368016e+00
1.696786e+03, 3.319996e+00
1.698482e+03, 1.486597e+00
1.700181e+03, 1.613655e+00
1.701881e+03, 1.505606e+00
1.703583e+03, 9.534918e-01
1.705287e+03, 1.959601e+00
1.706992e+03, 2.731377e+00
1.708699e+03, 2.224560e+00
1.710408e+03, 2.964000e+00
1.712118e+03, 3.495229e+00
1.713830e+03, 3.214343e+00
1.715544e+03, 2.864500e+00
1.717259e+03, 8.753361e-01
1.718977e+03, 2.377855e+00
1.720696e+03, 1.886455e+00
1.722416e+03, 3.101683e+00
1.724139e+03, 3.235188e+00
1.725863e+03, 4.052882e+00
1.727589e+03, 6.095810e+00
1.729316e+03, 5.723707e+00
1.731046e+03, 6.100194e+00
1.732777e+03, 6.539499e+00
1.734510e+03, 2.137790e+00
1.736244e+03, 2.680041e+00
1.737980e+03, 2.615809e+00
1.739718e+03, 2.786080e+00
1.741458e+03, 2.531217e+00
1.743199e+03, 3.599398e+00
1.744943e+03, 4.852799e+00
1.746688e+03, 5.004024e+00
1.748434e+03, 3.600991e+00
1.750183e+03, 1.481310e+00
1.751933e+03, 1.560249e+00
1.753685e+03, 1.802811e+00
1.755439e+03, 4.973802e+00
1.757194e+03, 5.402616e+00
1.758951e+03, 5.018006e+00
1.760710e+03, 6.201231e+00
1.762471e+03, 4.710803e+00
1.764233e+03, 7.697453e+00
1.765998e+03, 6.955693e+00
1.767764e+03, 1.512768e+01
1.769531e+03, 1.152569e+01
1.771301e+03, 6.879480e+00
1.773072e+03, 3.355148e+00
1.774845e+03, 5.334689e+00
1.776620e+03, 7.338935e+00
1.778397e+03, 7.987345e+00
1.780175e+03, 9.788125e+00
1.781955e+03, 1.578105e+01
1.783737e+03, 1.668520e+01
1.785521e+03, 1.592744e+01
1.787306e+03, 2.143380e+01
1.789094e+03, 1.530229e+01
1.790883e+03, 1.273072e+01
1.792674e+03, 5.635703e+00
1.794466e+03, 1.134713e+01
1.796261e+03, 1.661283e+01
1.798057e+03, 1.176057e+01
1.799855e+03, 1.548106e+01
1.801655e+03, 2.122332e+01
1.803457e+03, 2.504474e+01
1.805260e+03, 2.292637e+01
1.807065e+03, 2.043184e+01
1.808872e+03, 3.158512e+01
1.810681e+03, 2.193717e+01
1.812492e+03, 7.656095e+00
1.814304e+03, 1.027758e+01
1.816119e+03, 1.332714e+01
1.817935e+03, 2.285276e+01
1.819753e+03, 1.509122e+01
1.821573e+03, 2.056997e+01
1.823394e+03, 3.322324e+01
1.825218e+03, 3.267411e+01
1.827043e+03, 2.579882e+01
1.828870e+03, 3.337404e+01
1.830699e+03, 3.376189e+01
1.832529e+03, 1.437749e+01
1.834362e+03, 1.064956e+01
1.836196e+03, 1.583884e+01
1.838032e+03, 2.362193e+01
1.839871e+03, 2.266085e+01
1.841710e+03, 2.788235e+01
1.843552e+03, 3.663929e+01
1.845396e+03, 4.208719e+01
1.847241e+03, 4.367954e+01
1.849088e+03, 3.939625e+01
1.850937e+03, 3.044805e+01
1.852788e+03, 2.220817e+01
1.854641e+03, 1.098422e+01
1.856496e+03, 1.173385e+01
1.858352e+03, 1.898290e+01
1.860211e+03, 2.601661e+01
1.862071e+03, 2.496224e+01
1.863933e+03, 2.151942e+01
1.865797e+03, 2.572231e+01
1.867663e+03, 3.408441e+01
1.869530e+03, 3.398848e+01
1.871400e+03, 3.399063e+01
1.873271e+03, 2.815277e+01
1.875144e+03, 2.540591e+01
1.877020e+03, 2.604952e+01
1.878897e+03, 2.330438e+01
1.880776e+03, 3.370275e+01
1.882656e+03, 4.471877e+01
1.884539e+03, 5.686392e+01
1.886424e+03, 5.598263e+01
1.888310e+03, 6.725631e+01
1.890198e+03, 7.623345e+01
1.892088e+03, 1.131614e+02
1.893981e+03, 1.007422e+02
1.895875e+03, 8.240642e+01
1.897770e+03, 7.462863e+01
1.899668e+03, 5.594848e+01
1.901568e+03, 8.641689e+01
1.903469e+03, 1.200299e+02
1.905373e+03, 1.127094e+02
1.907278e+03, 1.286165e+02
1.909186e+03, 1.507311e+02
1.911095e+03, 1.689134e+02
1.913006e+03, 1.731192e+02
1.914919e+03, 1.761377e+02
1.916834e+03, 2.056765e+02
1.918751e+03, 1.402724e+02
1.920669e+03, 1.509971e+02
1.922590e+03, 1.330342e+02
1.924513e+03, 1.620517e+02
1.926437e+03, 1.809735e+02
1.928364e+03, 1.722155e+02
1.930292e+03, 2.169823e+02
1.932222e+03, 2.512416e+02
1.934154e+03, 2.261179e+02
1.936089e+03, 1.995157e+02
1.938025e+03, 2.447346e+02
1.939963e+03, 2.485687e+02
1.941903e+03, 3.265498e+02
1.943845e+03, 1.979417e+02
1.945788e+03, 1.723137e+02
1.947734e+03, 2.463705e+02
1.949682e+03, 2.034768e+02
1.951632e+03, 2.382615e+02
1.953583e+03, 3.672667e+02
1.955537e+03, 3.230045e+02
1.957492e+03, 3.646727e+02
1.959450e+03, 3.228906e+02
1.961409e+03, 3.188562e+02
1.963371e+03, 3.891147e+02
1.965334e+03, 3.661998e+02
1.967299e+03, 3.659703e+02
1.969267e+03, 3.115089e+02
1.971236e+03, 4.448780e+02
1.973207e+03, 3.692761e+02
1.975180e+03, 4.588624e+02
1.977156e+03, 4.807656e+02
1.979133e+03, 5.175945e+02
1.981112e+03, 5.605936e+02
1.983093e+03, 6.359915e+02
1.985076e+03, 6.635970e+02
1.987061e+03, 6.043991e+02
1.989048e+03, 5.985791e+02
1.991037e+03, 4.951573e+02
1.993028e+03, 5.394419e+02
1.995021e+03, 4.647898e+02
1.997016e+03, 5.254217e+02
1.999013e+03, 5.864784e+02
2.001012e+03, 5.744611e+02
2.003013e+03, 6.737884e+02
2.005016e+03, 6.919788e+02
2.007021e+03, 6.241398e+02
2.009028e+03, 7.637404e+02
2.011037e+03, 7.942534e+02
2.013048e+03, 8.447872e+02
2.015062e+03, 8.215093e+02
2.017077e+03, 7.084718e+02
2.019094e+03, 7.887891e+02
2.021113e+03, 7.656516e+02
2.023134e+03, 7.712674e+02
2.025157e+03, 8.502535e+02
2.027182e+03, 7.273829e+02
2.029209e+03, 1.101321e+03
2.031239e+03, 1.059396e+03
2.033270e+03, 1.134569e+03
2.035303e+03, 1.033513e+03
2.037338e+03, 1.138928e+03
2.039376e+03, 1.184968e+03
2.041415e+03, 1.045937e+03
2.043457e+03, 1.045129e+03
2.045500e+03, 1.037937e+03
2.047545e+03, 1.087313e+03
2.049593e+03, 1.264049e+03
2.051643e+03, 1.234281e+03
2.053694e+03, 1.296818e+03
2.055748e+03, 1.313612e+03
2.057804e+03, 1.650682e+03
2.059861e+03, 1.302391e+03
2.061921e+03, 1.318946e+03
2.063983e+03, 1.297901e+03
2.066047e+03, 1.161061e+03
2.068113e+03, 1.651939e+03
2.070181e+03, 1.388852e+03
2.072252e+03, 3.269122e+04
2.074324e+03, 8.635560e+03
2.076398e+03, 7.770391e+03
2.078475e+03, 4.065834e+03
2.080553e+03, 1.808669e+04
2.082634e+03, 1.480304e+04
2.084716e+03, 1.233350e+04
2.086801e+03, 1.802903e+04
2.088888e+03, 3.057519e+04
2.090977e+03, 3.932953e+04
2.093068e+03, 2.409364e+04
2.095161e+03, 1.065697e+04
2.097256e+03, 4.689537e+04
2.099353e+03, 3.222744e+04
2.101452e+03, 3.018985e+04
2.103554e+03, 2.268653e+04
2.105657e+03, 2.903632e+04
2.107763e+03, 2.138861e+04
2.109871e+03, 1.833284e+04
2.111981e+03, 6.223110e+04
2.114093e+03, 4.304247e+04
2.116207e+03, 1.527667e+04
2.118323e+03, 2.189335e+04
2.120441e+03, 4.778411e+04
2.122562e+03, 8.709653e+04
2.124684e+03, 5.331829e+04
2.126809e+03, 2.984346e+04
2.128936e+03, 3.128368e+04
2.131065e+03, 6.637360e+04
2.133196e+03, 6.774642e+04
2.135329e+03, 4.784774e+04
2.137464e+03, 5.342720e+04
2.139602e+03, 6.068031e+04
2.141741e+03, 1.014989e+04
2.143883e+03, 5.769023e+04
2.146027e+03, 5.507430e+04
2.148173e+03, 1.791233e+04
2.150321e+03, 2.433104e+04
2.152472e+03, 8.233892e+04
2.154624e+03, 6.890589e+04
2.156779e+03, 1.190227e+05
2.158935e+03, 5.080937e+04
2.161094e+03, 7.062918e+04
2.163255e+03, 2.965668e+04
2.165419e+03, 4.533165e+04
2.167584e+03, 3.248061e+04
2.169752e+03, 3.326963e+04
2.171921e+03, 8.492526e+04
2.174093e+03, 5.061527e+04
2.176268e+03, 1.924211e+05
2.178444e+03, 1.380950e+04
2.180622e+03, 3.922074e+04
2.182803e+03, 3.353207e+04
2.184986e+03, 9.466170e+04
2.187171e+03, 6.033890e+04
2.189358e+03, 1.631915e+05
2.191547e+03, 1.183745e+05
2.193739e+03, 9.781276e+04
2.195932e+03, 1.583962e+05
2.198128e+03, 1.673400e+05
2.200327e+03, 2.122322e+04
2.202527e+03, 1.317648e+05
2.204729e+03, 7.349209e+04
2.206934e+03, 3.544827e+05
2.209141e+03, 1.674959e+05
2.211350e+03, 1.201611e+05
2.213562e+03, 2.821785e+05
2.215775e+03, 2.426004e+05
2.217991e+03, 5.352661e+04
2.220209e+03, 5.557145e+04
2.222429e+03, 6.084010e+04
2.224651e+03, 1.590253e+05
2.226876e+03, 1.012787e+05
2.229103e+03, 3.118596e+05
2.231332e+03, 1.876489e+05
2.233563e+03, 6.041457e+05
2.235797e+03, 1.019360e+06
2.238033e+03, 8.466910e+04
2.240271e+03, 2.569684e+05
2.242511e+03, 1.622323e+05
2.244754e+03, 3.198621e+05
2.246998e+03, 3.833372e+05
2.249245e+03, 5.222296e+05
2.251495e+03, 5.634580e+05
2.253746e+03, 8.674276e+05
2.256000e+03, 6.011057e+05
2.258256e+03, 6.067002e+04
2.260514e+03, 2.265888e+04
2.262775e+03, 7.953145e+04
2.265037e+03, 1.994513e+05
2.267302e+03, 2.109239e+05
2.269570e+03, 1.639962e+05
2.271839e+03, 5.275371e+05
2.274111e+03, 8.028733e+05
2.276385e+03, 3.225240e+05
2.278662e+03, 6.622388e+05
2.280940e+03, 3.710218e+05
2.283221e+03, 3.640853e+05
2.285504e+03, 3.881971e+05
2.287790e+03, 4.189843e+05
2.290078e+03, 5.218561e+05
2.292368e+03, 1.142764e+06
2.294660e+03, 6.682517e+05
2.296955e+03, 1.214642e+06
2.299252e+03, 4.143999e+05
2.301551e+03, 4.010504e+04
2.303853e+03, 7.051423e+04
2.306156e+03, 2.202077e+05
2.308463e+03, 4.212094e+05
2.310771e+03, 4.550582e+05
2.313082e+03, 5.281691e+05
2.315395e+03, 1.772248e+06
2.317710e+03, 2.589625e+06
2.320028e+03, 1.176169e+06
2.322348e+03, 4.053400e+05
2.324670e+03, 9.873586e+05
2.326995e+03, 8.286753e+05
2.329322e+03, 8.193956e+05
2.331651e+03, 2.949086e+06
2.333983e+03, 2.636679e+06
2.336317e+03, 2.702017e+06
2.338653e+03, 2.288652e+06
2.340992e+03, 5.200388e+06
2.343333e+03, 1.433528e+06
2.345676e+03, 1.686998e+05
2.348022e+03, 1.887653e+05
2.350370e+03, 4.965181e+05
2.352720e+03, 5.295432e+05
2.355073e+03, 5.562564e+05
2.357428e+03, 8.380168e+05
2.359786e+03, 1.686163e+06
2.362145e+03, 1.657325e+06
2.364508e+03, 2.773694e+06
2.366872e+03, 1.352761e+05
2.369239e+03, 6.565076e+05
2.371608e+03, 9.110061e+05
2.373980e+03, 4.199828e+05
2.376354e+03, 1.621348e+06
2.378730e+03, 2.034349e+06
2.381109e+03, 5.223277e+06
2.383490e+03, 5.031654e+06
2.385873e+03, 3.897641e+06
2.388259e+03, 2.566524e+06
2.390648e+03, 1.430579e+06
2.393038e+03, 2.147502e+06
2.395431e+03, 2.750148e+06
2.397827e+03, 4.208582e+06
2.400225e+03, 4.587514e+06
2.402625e+03, 8.498089e+06
2.405027e+03, 1.631501e+07
2.407432e+03, 1.054536e+07
2.409840e+03, 1.746424e+07
2.412250e+03, 4.693374e+06
2.414662e+03, 9.212528e+05
2.417077e+03, 1.538448e+06
2.419494e+03, 1.600713e+06
2.421913e+03, 2.044554e+06
2.424335e+03, 2.998695e+06
2.426759e+03, 7.380398e+06
2.429186e+03, 2.040914e+07
2.431615e+03, 1.744194e+07
2.434047e+03, 7.366340e+06
2.436481e+03, 6.678485e+06
2.438918e+03, 1.308312e+07
2.441356e+03, 1.403705e+07
2.443798e+03, 1.949932e+07
2.446242e+03, 2.493191e+07
2.448688e+03, 2.474966e+07
2.451137e+03, 2.432780e+07
2.453588e+03, 4.112283e+07
2.456041e+03, 4.847672e+07
2.458497e+03, 1.115163e+07
2.460956e+03, 3.747647e+06
2.463417e+03, 2.152929e+06
2.465880e+03, 1.096891e+07
2.468346e+03, 2.046758e+07
2.470814e+03, 1.486354e+07
2.473285e+03, 6.117565e+06
2.475758e+03, 1.941860e+07
2.478234e+03, 1.986523e+07
2.480712e+03, 5.017075e+06
2.483193e+03, 1.679858e+06
2.485676e+03, 1.934779e+06
2.488162e+03, 6.753434e+05
2.490650e+03, 5.940314e+05
2.493141e+03, 3.155292e+06
2.495634e+03, 8.302345e+06
2.498130e+03, 1.045235e+07
2.500628e+03, 8.066112e+06
2.503128e+03, 1.594434e+07
2.505632e+03, 2.124377e+07
2.508137e+03, 1.509393e+07
2.510645e+03, 3.651750e+06
2.513156e+03, 7.899436e+06
2.515669e+03, 1.562596e+07
2.518185e+03, 7.830078e+06
2.520703e+03, 1.369629e+07
2.523224e+03, 3.353693e+06
2.525747e+03, 1.322877e+07
2.528273e+03, 6.383899e+06
2.530801e+03, 1.321018e+07
2.533332e+03, 4.702555e+07
2.535865e+03, 4.121775e+07
2.538401e+03, 8.570007e+07
2.540939e+03, 4.181123e+07
2.543480e+03, 6.548949e+07
2.546024e+03, 2.699385e+07
2.548570e+03, 7.824230e+07
2.551118e+03, 6.987888e+07
2.553669e+03, 1.847593e+08
2.556223e+03, 1.033966e+08
2.558779e+03, 6.718227e+07
2.561338e+03, 9.383353e+07
2.563899e+03, 3.314979e+07
2.566463e+03, 2.104520e+07
2.569030e+03, 3.634835e+07
2.571599e+03, 7.531264e+07
2.574170e+03, 7.748330e+07
2.576745e+03, 5.092140e+07
2.579321e+03, 9.572174e+07
2.581901e+03, 6.549434e+07
2.584483e+03, 6.291309e+07
2.587067e+03, 5.060471e+07
2.589654e+03, 2.807168e+07
2.592244e+03, 4.414464e+07
2.594836e+03, 7.196062e+07
2.597431e+03, 2.003908e+08
2.600028e+03, 1.260866e+08
2.602628e+03, 1.802365e+08
2.605231e+03, 2.431144e+08
2.607836e+03, 1.145670e+08
2.610444e+03, 1.459433e+08
2.613054e+03, 9.492051e+07
2.615667e+03, 1.785833e+08
2.618283e+03, 1.581850e+08
2.620901e+03, 2.612316e+08
2.623522e+03, 2.365438e+08
2.626146e+03, 5.266126e+08
2.628772e+03, 4.399890e+08
2.631401e+03, 5.495329e+08
2.634032e+03, 4.813868e+08
2.636666e+03, 6.598754e+08
2.639303e+03, 1.253886e+09
2.641942e+03, 5.715201e+08
2.644584e+03, 2.954623e+08
2.647229e+03, 1.545635e+08
2.649876e+03, 3.682138e+08
2.652526e+03, 2.988042e+08
2.655178e+03, 8.133831e+08
2.657834e+03, 6.408924e+08
2.660491e+03, 3.317263e+08
2.663152e+03, 5.414254e+08
2.665815e+03, 4.157357e+08
2.668481e+03, 3.390117e+08
2.671149e+03, 1.897929e+08
2.673820e+03, 3.840515e+08
2.676494e+03, 5.367535e+08
2.679171e+03, 4.982161e+08
2.681850e+03, 4.967555e+08
2.684532e+03, 8.609684e+08
2.687216e+03, 7.942007e+08
2.689904e+03, 3.922483e+08
2.692593e+03, 3.428233e+08
2.695286e+03, 3.002453e+08
2.697981e+03, 3.379628e+08
2.700679e+03, 5.786860e+08
2.703380e+03, 6.187747e+08
2.706083e+03, 9.839806e+08
2.708789e+03, 8.661586e+08
2.711498e+03, 7.794176e+08
2.714210e+03, 5.137376e+08
2.716924e+03, 2.971134e+08
2.719641e+03, 4.150739e+07
2.722360e+03, 7.603087e+07
2.725083e+03, 1.759304e+08
2.727808e+03, 4.739565e+08
2.730536e+03, 4.721561e+08
2.733266e+03, 3.815472e+08
2.736000e+03, 2.886079e+08
2.738736e+03, 2.492105e+08
2.741474e+03, 4.600723e+08
2.744216e+03, 1.089125e+08
2.746960e+03, 6.625282e+08
2.749707e+03, 4.115861e+08
2.752457e+03, 5.279710e+08
2.755209e+03, 5.714892e+08
2.757964e+03, 4.751067e+08
2.760722e+03, 1.068873e+09
2.763483e+03, 9.876301e+08
2.766246e+03, 2.005625e+09
2.769013e+03, 1.293946e+09
2.771782e+03, 1.018893e+09
2.774554e+03, 1.552869e+09
2.777328e+03, 2.029745e+09
2.780105e+03, 7.478746e+08
2.782886e+03, 9.470688e+08
2.785668e+03, 1.547741e+09
2.788454e+03, 8.343828e+08
2.791243e+03, 1.763534e+09
2.794034e+03, 1.187058e+09
2.796828e+03, 6.722301e+08
2.799625e+03, 4.986411e+08
2.802424e+03, 7.533332e+08
2.805227e+03, 1.568677e+09
2.808032e+03, 9.975379e+08
2.810840e+03, 1.685547e+09
2.813651e+03, 1.375441e+09
2.816464e+03, 1.884048e+09
2.819281e+03, 1.612489e+09
2.822100e+03, 9.968068e+08
2.824922e+03, 1.140215e+09
2.827747e+03, 8.772296e+08
2.830575e+03, 1.096520e+09
2.833406e+03, 7.629824e+08
2.836239e+03, 5.727406e+08
2.839075e+03, 5.418988e+08
2.841914e+03, 3.995425e+08
2.844756e+03, 2.619696e+08
2.847601e+03, 1.410114e+08
2.850448e+03, 4.615119e+07
2.853299e+03, 6.622369e+06
2.856152e+03, 7.514871e+07
2.859008e+03, 1.976646e+08
2.861867e+03, 3.697737e+08
2.864729e+03, 5.059852e+08
2.867594e+03, 7.504006e+08
2.870462e+03, 8.803019e+08
2.873332e+03, 9.892498e+08
2.876205e+03, 1.091800e+09
2.879082e+03, 1.651442e+09
2.881961e+03, 2.197671e+09
2.884843e+03, 3.096405e+09
2.887727e+03, 3.564880e+09
2.890615e+03, 4.108272e+09
2.893506e+03, 4.473080e+09
2.896399e+03, 4.577417e+09
2.899296e+03, 4.726986e+09
2.902195e+03, 4.451053e+09
2.905097e+03, 5.816384e+09
2.908002e+03, 6.692215e+09
2.910910e+03, 5.025468e+09
2.913821e+03, 3.532377e+09
2.916735e+03, 7.353767e+09
2.919652e+03, 9.012936e+09
2.922571e+03, 9.677524e+09
2.925494e+03, 9.009770e+09
2.928420e+03, 3.194078e+09
2.931348e+03, 4.666695e+09
2.934279e+03, 6.026092e+09
2.937214e+03, 1.207538e+09
2.940151e+03, 4.159557e+09
2.943091e+03, 2.281930e+09
2.946034e+03, 3.599030e+09
2.948980e+03, 1.286624e+09
2.951929e+03, 5.468319e+09
2.954881e+03, 1.635961e+09
2.957836e+03, 1.704394e+09
2.960794e+03, 6.816505e+09
2.963754e+03, 4.924213e+09
2.966718e+03, 6.377658e+08
2.969685e+03, 8.397687e+08
2.972655e+03, 1.017643e+09
2.975627e+03, 2.047318e+09
2.978603e+03, 5.871035e+09
2.981581e+03, 2.957885e+09
2.984563e+03, 8.119268e+08
2.987548e+03, 3.419551e+09
2.990535e+03, 6.922030e+09
2.993526e+03, 2.361014e+09
2.996519e+03, 1.448317e+09
2.999516e+03, 2.760990e+09
3.002515e+03, 5.757296e+08
3.005518e+03, 3.125724e+09
3.008523e+03, 1.042419e+09
3.011532e+03, 4.172182e+09
3.014543e+03, 4.138597e+09
3.017558e+03, 2.379890e+09
3.020575e+03, 4.070012e+08
3.023596e+03, 8.587444e+08
3.026620e+03, 1.375546e+09
3.029646e+03, 6.689781e+09
3.032676e+03, 8.822801e+09
3.035709e+03, 7.615020e+09
3.038744e+03, 2.044365e+09
3.041783e+03, 6.222845e+09
3.044825e+03, 6.345982e+09
3.047870e+03, 2.200749e+09
3.050918e+03, 2.988142e+09
3.053968e+03, 6.882655e+09
3.057022e+03, 5.499508e+09
3.060079e+03, 1.576621e+09
3.063140e+03, 1.234441e+10
3.066203e+03, 1.721227e+10
3.069269e+03, 2.109438e+10
3.072338e+03, 3.101323e+10
3.075410e+03, 2.079665e+10
3.078486e+03, 2.125809e+10
3.081564e+03, 5.903177e+09
3.084646e+03, 6.095795e+09
3.087731e+03, 1.746584e+10
3.090818e+03, 9.507865e+09
3.093909e+03, 1.743112e+09
3.097003e+03, 1.077944e+10
3.100100e+03, 1.132522e+10
3.103200e+03, 1.106366e+10
3.106303e+03, 3.546245e+10
3.109410e+03, 5.971830e+10
3.112519e+03, 6.494067e+10
3.115632e+03, 5.484160e+10
3.118747e+03, 6.098346e+10
3.121866e+03, 7.078314e+10
3.124988e+03, 8.614259e+10
3.128113e+03, 9.427237e+10
3.131241e+03, 6.094628e+10
3.134372e+03, 2.396456e+10
3.137507e+03, 6.549424e+10
3.140644e+03, 8.425928e+10
3.143785e+03, 9.477597e+10
3.146928e+03, 8.776370e+10
3.150075e+03, 1.164513e+11
3.153225e+03, 9.374075e+10
3.156379e+03, 1.434342e+11
3.159535e+03, 8.201467e+10
3.162695e+03, 9.761285e+10
3.165857e+03, 1.160907e+11
3.169023e+03, 1.439769e+11
3.172192e+03, 1.282904e+11
3.175364e+03, 1.809650e+11
3.178540e+03, 1.654145e+11
3.181718e+03, 8.075056e+10
3.184900e+03, 2.497183e+10
3.188085e+03, 6.847452e+10
3.191273e+03, 6.281242e+10
3.194464e+03, 3.655012e+10
3.197659e+03, 5.902172e+10
3.200856e+03, 4.663930e+10
3.204057e+03, 1.201086e+11
3.207261e+03, 1.527693e+11
3.210469e+03, 1.379613e+11
3.213679e+03, 9.180978e+10
3.216893e+03, 7.476655e+10
3.220110e+03, 1.403425e+11
3.223330e+03, 9.717260e+10
3.226553e+03, 5.843632e+10
3.229780e+03, 8.903285e+10
3.233009e+03, 7.067079e+10
3.236242e+03, 3.694961e+10
3.239479e+03, 1.549487e+11
3.242718e+03, 1.147958e+11
3.245961e+03, 7.851306e+10
3.249207e+03, 5.998783e+10
3.252456e+03, 1.824169e+11
3.255708e+03, 2.262535e+11
3.258964e+03, 2.665441e+11
3.262223e+03, 2.895978e+11
3.265485e+03, 1.509349e+11
3.268751e+03, 2.839615e+11
3.272020e+03, 1.438289e+11
3.275292e+03, 1.148101e+11
3.278567e+03, 2.900508e+11
3.281845e+03, 2.951683e+11
3.285127e+03, 2.286309e+11
3.288412e+03, 2.120676e+11
3.291701e+03, 3.039591e+11
3.294993e+03, 3.349244e+11
3.298288e+03, 2.751185e+11
3.301586e+03, 9.769039e+10
3.304887e+03, 6.221075e+10
3.308192e+03, 1.759801e+11
3.311500e+03, 2.497068e+11
3.314812e+03, 2.043396e+11
3.318127e+03, 2.001606e+11
3.321445e+03, 1.864264e+11
3.324766e+03, 2.552546e+11
3.328091e+03, 4.259845e+11
3.331419e+03, 3.526425e+11
3.334751e+03, 2.638767e+11
3.338085e+03, 2.790939e+11
3.341423e+03, 2.260906e+11
3.344765e+03, 2.097766e+11
3.348110e+03, 3.362347e+11
3.351458e+03, 9.538048e+10
3.354809e+03, 1.434653e+11
3.358164e+03, 2.440956e+11
3.361522e+03, 8.444775e+10
3.364884e+03, 2.232550e+11
3.368249e+03, 1.228730e+11
3.371617e+03, 3.202652e+10
3.374988e+03, 1.176050e+11
3.378363e+03, 1.549056e+11
3.381742e+03, 7.846495e+10
3.385124e+03, 2.102026e+11
3.388509e+03, 2.021296e+11
3.391897e+03, 8.272205e+10
3.395289e+03, 1.067834e+11
3.398684e+03, 2.445788e+11
3.402083e+03, 2.720678e+11
3.405485e+03, 1.844953e+11
3.408891e+03, 1.646446e+11
3.412300e+03, 9.524770e+10
3.415712e+03, 1.621504e+10
3.419128e+03, 1.247723e+11
3.422547e+03, 1.903040e+11
3.425969e+03, 1.103057e+11
3.429395e+03, 1.744443e+11
3.432825e+03, 8.849965e+10
3.436257e+03, 5.383299e+10
3.439694e+03, 1.711083e+10
3.443133e+03, 7.014918e+09
3.446576e+03, 1.907290e+10
3.450023e+03, 8.794806e+10
3.453473e+03, 5.642810e+10
3.456927e+03, 1.212468e+11
3.460383e+03, 6.139779e+10
3.463844e+03, 5.705290e+10
3.467308e+03, 3.192846e+10
3.470775e+03, 1.262518e+11
3.474246e+03, 6.149616e+10
3.477720e+03, 2.423376e+10
3.481198e+03, 1.733577e+11
3.484679e+03, 1.524645e+11
3.488164e+03, 1.302925e+11
3.491652e+03, 1.973467e+10
3.495143e+03, 6.039332e+10
3.498639e+03, 5.228769e+10
3.502137e+03, 1.128338e+11
3.505639e+03, 3.073380e+11
3.509145e+03, 2.461217e+11
3.512654e+03, 9.921426e+10
3.516167e+03, 4.925566e+10
3.519683e+03, 1.630794e+11
3.523203e+03, 6.398421e+10
3.526726e+03, 2.086275e+10
3.530253e+03, 1.530712e+11
3.533783e+03, 3.272893e+11
3.537317e+03, 4.685041e+11
3.540854e+03, 5.226986e+11
3.544395e+03, 5.843905e+11
3.547939e+03, 3.985787e+11
3.551487e+03, 4.037065e+11
3.555039e+03, 3.090254e+11
3.558594e+03, 2.185677e+11
3.562152e+03, 2.565375e+11
3.565714e+03, 9.722667e+10
3.569280e+03, 7.923196e+10
3.572849e+03, 7.800640e+10
3.576422e+03, 8.146750e+10
3.579999e+03, 1.503281e+10
3.583579e+03, 5.323635e+10
3.587162e+03, 5.386005e+10
3.590749e+03, 1.144676e+11
3.594340e+03, 2.393323e+10
3.597934e+03, 9.662907e+10
3.601532e+03, 1.934650e+11
3.605134e+03, 5.079884e+10
3.608739e+03, 4.771860e+10
3.612348e+03, 1.273906e+11
3.615960e+03, 2.804979e+11
3.619576e+03, 7.780901e+10
3.623196e+03, 2.461114e+11
3.626819e+03, 3.358335e+11
3.630446e+03, 2.096403e+11
3.634076e+03, 1.736992e+11
3.637710e+03, 2.695391e+11
3.641348e+03, 4.236343e+11
3.644989e+03, 1.444782e+11
3.648634e+03, 6.552519e+10
3.652283e+03, 2.298902e+11
3.655935e+03, 3.349432e+11
3.659591e+03, 5.816897e+11
3.663251e+03, 5.957018e+11
3.666914e+03, 7.277112e+11
3.670581e+03, 4.616382e+11
3.674251e+03, 4.381838e+11
3.677926e+03, 3.121471e+11
3.681604e+03, 8.712485e+10
3.685285e+03, 2.615812e+11
3.688971e+03, 2.136315e+11
3.692660e+03, 4.846820e+11
3.696352e+03, 4.806721e+11
3.700049e+03, 4.954416e+11
3.703749e+03, 2.166806e+11
3.707452e+03, 4.270537e+10
3.711160e+03, 1.431123e+11
3.714871e+03, 1.676026e+11
3.718586e+03, 4.766226e+10
3.722304e+03, 1.191376e+10
3.726027e+03, 9.275477e+10
3.729753e+03, 9.627933e+10
3.733482e+03, 5.246180e+10
3.737216e+03, 1.399353e+10
3.740953e+03, 6.160713e+10
3.744694e+03, 5.001378e+10
3.748439e+03, 1.725489e+10
3.752187e+03, 8.685570e+10
3.755939e+03, 2.233763e+11
3.759695e+03, 1.329335e+11
3.763455e+03, 2.136396e+11
3.767219e+03, 1.738240e+11
3.770986e+03, 4.759474e+11
3.774757e+03, 6.249433e+11
3.778532e+03, 6.723435e+11
3.782310e+03, 7.901088e+11
3.786092e+03, 4.511730e+11
3.789878e+03, 2.849528e+11
3.793668e+03, 5.678830e+11
3.797462e+03, 3.356775e+11
3.801259e+03, 3.318688e+11
3.805061e+03, 8.020963e+11
3.808866e+03, 5.683514e+11
3.812675e+03, 4.843304e+11
3.816487e+03, 2.355343e+11
3.820304e+03, 1.282582e+11
3.824124e+03, 7.166889e+10
3.827948e+03, 8.650662e+10
3.831776e+03, 2.799745e+11
3.835608e+03, 2.122813e+11
3.839444e+03, 2.896741e+11
3.843283e+03, 3.371591e+11
3.847126e+03, 4.889117e+11
3.850973e+03, 2.827982e+11
3.854824e+03, 1.992362e+11
3.858679e+03, 3.310010e+10
3.862538e+03, 6.124717e+10
3.866400e+03, 2.085697e+11
3.870267e+03, 4.539194e+11
3.874137e+03, 2.836774e+11
3.878011e+03, 1.331639e+11
3.881889e+03, 2.196978e+11
3.885771e+03, 1.214707e+11
3.889657e+03, 1.617086e+11
3.893547e+03, 3.919603e+11
3.897440e+03, 1.513464e+11
3.901338e+03, 1.547185e+11
3.905239e+03, 3.570440e+11
3.909144e+03, 3.857841e+11
3.913053e+03, 7.719799e+11
3.916966e+03, 5.738965e+11
3.920883e+03, 1.892321e+11
3.924804e+03, 1.466531e+11
3.928729e+03, 1.355164e+11
3.932658e+03, 1.582714e+11
3.936590e+03, 3.792225e+11
3.940527e+03, 4.038763e+11
3.944467e+03, 7.069408e+10
3.948412e+03, 1.988726e+11
3.952360e+03, 4.785411e+11
3.956313e+03, 3.723814e+11
3.960269e+03, 1.159927e+11
3.964229e+03, 8.426510e+10
3.968194e+03, 2.700358e+11
3.972162e+03, 5.310475e+11
3.976134e+03, 7.764094e+11
3.980110e+03, 1.047581e+12
3.984090e+03, 8.033717e+11
3.988074e+03, 1.311235e+12
3.992062e+03, 9.489394e+11
3.996054e+03, 1.371506e+12
4.000050e+03, 8.652133e+11
4.004050e+03, 1.590791e+12
4.008055e+03, 1.131967e+12
4.012063e+03, 1.258352e+12
4.016075e+03, 1.963647e+12
4.020091e+03, 1.469243e+12
4.024111e+03, 1.122414e+12
4.028135e+03, 1.070063e+12
4.032163e+03, 2.094316e+11
4.036195e+03, 4.037648e+11
4.040231e+03, 1.359810e+12
4.044272e+03, 9.109466e+11
4.048316e+03, 5.531337e+11
4.052364e+03, 1.771880e+12
4.056417e+03, 1.642481e+12
4.060473e+03, 1.575826e+12
4.064533e+03, 8.091323e+11
4.068598e+03, 1.561876e+12
4.072667e+03, 1.026529e+12
4.076739e+03, 1.590277e+12
4.080816e+03, 1.760438e+12
4.084897e+03, 1.805905e+12
4.088982e+03, 2.332783e+12
4.093071e+03, 1.672968e+12
4.097164e+03, 1.356477e+12
4.101261e+03, 1.002149e+12
4.105362e+03, 1.325562e+12
4.109468e+03, 1.337509e+12
4.113577e+03, 1.182997e+12
4.117691e+03, 1.194149e+12
4.121808e+03, 1.342163e+12
4.125930e+03, 1.667919e+12
4.130056e+03, 1.186330e+12
4.134186e+03, 8.356707e+11
4.138320e+03, 1.493714e+12
4.142459e+03, 1.065516e+12
4.146601e+03, 1.033444e+12
4.150748e+03, 1.322929e+12
4.154898e+03, 1.390202e+12
4.159053e+03, 1.447655e+12
4.163212e+03, 1.499241e+12
4.167376e+03, 1.124895e+12
4.171543e+03, 1.024069e+12
4.175714e+03, 8.503247e+11
4.179890e+03, 9.553718e+11
4.184070e+03, 9.187723e+11
4.188254e+03, 8.000280e+11
4.192442e+03, 7.492621e+11
4.196635e+03, 7.192808e+11
4.200831e+03, 5.396274e+11
4.205032e+03, 4.568834e+11
4.209237e+03, 3.765313e+11
4.213447e+03, 2.833607e+11
4.217660e+03, 1.729682e+11
4.221878e+03, 1.041946e+11
4.226100e+03, 3.118545e+10
4.230326e+03, 4.160338e+10
4.234556e+03, 1.153484e+11
4.238791e+03, 2.137078e+11
4.243029e+03, 3.270121e+11
4.247272e+03, 4.413480e+11
4.251520e+03, 4.107467e+11
4.255771e+03, 1.892863e+11
4.260027e+03, 5.257607e+11
4.264287e+03, 8.063953e+11
4.268551e+03, 8.486796e+11
4.272820e+03, 4.799129e+11
4.277093e+03, 3.018074e+11
4.281370e+03, 8.551378e+11
4.285651e+03, 7.130055e+11
4.289937e+03, 3.472162e+11
4.294227e+03, 7.208978e+11
4.298521e+03, 9.076225e+11
4.302819e+03, 6.291037e+11
4.307122e+03, 7.895754e+11
4.311429e+03, 1.187665e+12
4.315741e+03, 1.216111e+12
4.320057e+03, 1.066896e+12
4.324377e+03, 1.304898e+12
4.328701e+03, 1.238085e+12
4.333030e+03, 1.698777e+12
4.337363e+03, 1.681269e+12
4.341700e+03, 1.414557e+12
4.346042e+03, 1.548472e+12
4.350388e+03, 1.843678e+12
4.354738e+03, 1.112540e+12
4.359093e+03, 1.514955e+12
4.363452e+03, 1.805155e+12
4.367815e+03, 1.971857e+12
4.372183e+03, 1.758639e+12
4.376555e+03, 1.209068e+12
4.380932e+03, 1.359203e+12
4.385313e+03, 7.925402e+11
4.389698e+03, 1.525263e+12
4.394088e+03, 1.833446e+12
4.398482e+03, 1.603881e+12
4.402881e+03, 1.505728e+12
4.407283e+03, 8.472403e+11
4.411691e+03, 1.754529e+12
4.416102e+03, 1.597213e+12
4.420518e+03, 2.129681e+12
4.424939e+03, 1.056276e+12
4.429364e+03, 9.142272e+11
4.433793e+03, 1.282923e+12
4.438227e+03, 9.715289e+11
4.442665e+03, 1.346382e+12
4.447108e+03, 1.623202e+12
4.451555e+03, 1.645133e+12
4.456007e+03, 7.920080e+11
4.460463e+03, 1.159745e+12
4.464923e+03, 9.971904e+11
4.469388e+03, 1.321962e+12
4.473857e+03, 1.473312e+12
4.478331e+03, 1.620448e+12
4.482810e+03, 1.408831e+12
4.487292e+03, 1.663177e+12
4.491780e+03, 1.692658e+12
4.496272e+03, 1.585346e+12
4.500768e+03, 2.088530e+12
4.505269e+03, 1.759264e+12
4.509774e+03, 1.276491e+12
4.514284e+03, 1.419955e+12
4.518798e+03, 1.544977e+12
4.523317e+03, 1.692078e+12
4.527840e+03, 1.499291e+12
4.532368e+03, 1.443000e+12
4.536900e+03, 1.296897e+12
4.541437e+03, 2.070357e+12
4.545979e+03, 1.907626e+12
4.550525e+03, 1.393197e+12
4.555075e+03, 1.396444e+12
4.559630e+03, 1.858893e+12
4.564190e+03, 2.095603e+12
4.568754e+03, 2.233698e+12
4.573323e+03, 2.029447e+12
4.577896e+03, 2.119341e+12
4.582474e+03, 1.709907e+12
4.587056e+03, 9.139784e+11
4.591643e+03, 8.499504e+11
4.596235e+03, 8.512332e+11
4.600831e+03, 1.053938e+12
4.605432e+03, 1.116856e+12
4.610038e+03, 1.011118e+12
4.614648e+03, 1.784547e+12
4.619262e+03, 1.665654e+12
4.623882e+03, 1.834478e+12
4.628505e+03, 8.909226e+11
4.633134e+03, 8.503598e+11
4.637767e+03, 8.887258e+11
4.642405e+03, 9.750284e+11
4.647047e+03, 1.092808e+12
4.651694e+03, 1.131223e+12
4.656346e+03, 1.333173e+12
4.661002e+03, 1.860881e+12
4.665663e+03, 1.632820e+12
4.670329e+03, 9.520890e+11
4.674999e+03, 8.864562e+11
4.679674e+03, 1.064370e+12
4.684354e+03, 9.565615e+11
4.689038e+03, 1.407596e+12
4.693727e+03, 1.527370e+12
4.698421e+03, 1.557487e+12
4.703120e+03, 1.805302e+12
4.707823e+03, 1.925471e+12
4.712530e+03, 1.705013e+12
4.717243e+03, 1.074424e+12
4.721960e+03, 1.258434e+12
4.726682e+03, 1.508087e+12
4.731409e+03, 1.640246e+12
4.736140e+03, 1.672343e+12
4.740876e+03, 1.595043e+12
4.745617e+03, 1.805974e+12
4.750363e+03, 1.910442e+12
4.755113e+03, 1.941275e+12
4.759868e+03, 1.357583e+12
4.764628e+03, 4.499693e+11
4.769393e+03, 4.764932e+11
4.774162e+03, 5.880310e+11
4.778936e+03, 7.921876e+11
4.783715e+03, 7.680262e+11
4.788499e+03, 7.528047e+11
4.793288e+03, 1.029854e+12
4.798081e+03, 1.277938e+12
4.802879e+03, 1.365597e+12
4.807682e+03, 4.879581e+11
4.812490e+03, 4.831351e+11
4.817302e+03, 6.689809e+11
4.822119e+03, 8.615792e+11
4.826941e+03, 8.978506e+11
4.831768e+03, 9.941187e+11
4.836600e+03, 1.259748e+12
4.841437e+03, 1.355421e+12
4.846278e+03, 1.642476e+12
4.851124e+03, 9.206822e+11
4.855976e+03, 9.230026e+11
4.860832e+03, 1.261427e+12
4.865692e+03, 1.347329e+12
4.870558e+03, 1.552728e+12
4.875429e+03, 1.608572e+12
4.880304e+03, 1.743955e+12
4.885184e+03, 2.067536e+12
4.890070e+03, 2.387862e+12
4.894960e+03, 2.058166e+12
4.899855e+03, 2.052755e+12
4.904754e+03, 2.059765e+12
4.909659e+03, 2.161492e+12
4.914569e+03, 2.526638e+12
4.919483e+03, 2.760624e+12
4.924403e+03, 2.969845e+12
4.929327e+03, 3.121415e+12
4.934257e+03, 3.666035e+12
4.939191e+03, 3.433223e+12
4.944130e+03, 3.118294e+12
4.949074e+03, 3.515912e+12
4.954023e+03, 3.010632e+12
4.958977e+03, 3.738703e+11
4.963936e+03, 5.006559e+11
4.968900e+03, 8.066605e+11
4.973869e+03, 7.676546e+11
4.978843e+03, 9.182957e+11
4.983822e+03, 1.038116e+12
4.988806e+03, 1.272331e+12
4.993794e+03, 1.237248e+12
4.998788e+03, 1.123398e+12
5.003787e+03, 6.681985e+11
5.008791e+03, 6.562313e+11
5.013800e+03, 6.809920e+11
5.018813e+03, 8.406273e+11
5.023832e+03, 8.522634e+11
5.028856e+03, 1.025161e+12
5.033885e+03, 1.435310e+12
5.038919e+03, 1.384764e+12
5.043958e+03, 1.292914e+12
5.049002e+03, 1.472679e+12
5.054051e+03, 1.391949e+12
5.059105e+03, 1.330788e+12
5.064164e+03, 1.475863e+12
5.069228e+03, 1.767101e+12
5.074297e+03, 1.852393e+12
5.079372e+03, 1.742697e+12
5.084451e+03, 2.097699e+12
5.089535e+03, 1.964025e+12
5.094625e+03, 1.912256e+12
5.099720e+03, 1.911458e+12
5.104819e+03, 2.249908e+12
5.109924e+03, 2.036677e+12
5.115034e+03, 2.895099e+12
5.120149e+03, 2.310829e+12
5.125269e+03, 2.376681e+12
5.130394e+03, 2.043460e+12
5.135525e+03, 3.411464e+12
5.140660e+03, 2.975520e+12
5.145801e+03, 2.223582e+12
5.150947e+03, 2.257263e+12
5.156098e+03, 2.100047e+12
5.161254e+03, 4.443794e+12
5.166415e+03, 2.907461e+12
5.171582e+03, 3.115637e+11
5.176753e+03, 5.209607e+11
5.181930e+03, 5.020816e+11
5.187112e+03, 8.428173e+11
5.192299e+03, 1.015424e+12
5.197491e+03, 1.179578e+12
5.202689e+03, 1.355227e+12
5.207891e+03, 7.518914e+11
5.213099e+03, 1.576395e+12
5.218312e+03, 2.392013e+12
5.223531e+03, 3.050902e+12
5.228754e+03, 2.404252e+12
5.233983e+03, 3.290054e+12
5.239217e+03, 3.202462e+12
5.244456e+03, 2.012162e+12
5.249701e+03, 2.197298e+12
5.254950e+03, 3.054900e+12
5.260205e+03, 3.270794e+12
5.265465e+03, 1.962601e+12
5.270731e+03, 1.706004e+12
5.276002e+03, 3.022261e+12
5.281278e+03, 3.288778e+12
5.286559e+03, 3.599488e+12
5.291846e+03, 3.911401e+12
5.297137e+03, 3.623156e+12
5.302435e+03, 3.994104e+12
5.307737e+03, 4.721506e+12
5.313045e+03, 3.254239e+12
5.318358e+03, 3.494248e+12
5.323676e+03, 3.588030e+12
5.329000e+03, 2.442936e+12
5.334329e+03, 3.627259e+12
5.339663e+03, 4.040844e+12
5.345003e+03, 3.725824e+12
5.350348e+03, 3.972954e+12
5.355698e+03, 4.898240e+12
5.361054e+03, 3.410999e+12
5.366415e+03, 3.483912e+12
5.371781e+03, 2.949404e+12
5.377153e+03, 4.129340e+12
5.382530e+03, 4.498069e+12
5.387913e+03, 4.991805e+12
5.393301e+03, 4.333944e+12
5.398694e+03, 3.492794e+12
5.404093e+03, 4.223941e+12
5.409497e+03, 3.171028e+12
5.414906e+03, 4.671960e+12
5.420321e+03, 5.079416e+12
5.425741e+03, 4.600870e+12
5.431167e+03, 3.926092e+12
5.436598e+03, 4.337375e+12
5.442035e+03, 5.287585e+12
5.447477e+03, 3.614567e+12
5.452924e+03, 1.159627e+12
5.458377e+03, 1.352242e+12
5.463836e+03, 1.797569e+12
5.469300e+03, 2.179513e+12
5.474769e+03, 2.258035e+12
5.480244e+03, 2.498126e+12
5.485724e+03, 2.672859e+12
5.491210e+03, 3.097418e+12
5.496701e+03, 2.659488e+12
5.502198e+03, 1.734262e+12
5.507700e+03, 2.003990e+12
5.513207e+03, 2.258935e+12
5.518721e+03, 2.595097e+12
5.524239e+03, 2.928985e+12
5.529764e+03, 3.136412e+12
5.535293e+03, 2.937338e+12
5.540829e+03, 3.389344e+12
5.546370e+03, 3.509294e+12
5.551916e+03, 3.244612e+12
5.557468e+03, 3.898937e+12
5.563025e+03, 3.917149e+12
5.568588e+03, 3.547625e+12
5.574157e+03, 3.482194e+12
5.579731e+03, 3.651052e+12
5.585311e+03, 3.617546e+12
5.590896e+03, 3.087391e+12
5.596487e+03, 3.146316e+12
5.602083e+03, 1.937025e+12
5.607686e+03, 2.200285e+12
5.613293e+03, 2.239307e+12
5.618907e+03, 2.022709e+12
5.624525e+03, 2.293883e+12
5.630150e+03, 2.104088e+12
5.635780e+03, 2.203002e+12
5.641416e+03, 2.080476e+12
5.647057e+03, 2.414542e+12
5.652704e+03, 2.858496e+12
5.658357e+03, 2.950864e+12
5.664015e+03, 2.262516e+12
5.669679e+03, 2.406260e+12
5.675349e+03, 2.559318e+12
5.681024e+03, 2.978875e+12
5.686705e+03, 2.871696e+12
5.692392e+03, 3.357175e+12
5.698085e+03, 3.356977e+12
5.703783e+03, 3.259973e+12
5.709486e+03, 3.278472e+12
5.715196e+03, 3.402423e+12
5.720911e+03, 3.852750e+12
5.726632e+03, 3.735045e+12
5.732359e+03, 4.129804e+12
5.738091e+03, 4.433810e+12
5.743829e+03, 4.565096e+12
5.749573e+03, 4.610072e+12
5.755323e+03, 4.622777e+12
5.761078e+03, 3.352504e+12
5.766839e+03, 3.025876e+12
5.772606e+03, 3.324793e+12
5.778378e+03, 3.765454e+12
5.784157e+03, 4.027814e+12
5.789941e+03, 4.186932e+12
5.795731e+03, 4.383221e+12
5.801527e+03, 4.420725e+12
5.807328e+03, 4.539080e+12
5.813135e+03, 3.419349e+12
5.818949e+03, 3.363024e+12
5.824768e+03, 3.667823e+12
5.830592e+03, 3.764858e+12
5.836423e+03, 3.841879e+12
5.842259e+03, 3.486943e+12
5.848102e+03, 2.960460e+12
5.853950e+03, 2.206740e+12
5.859804e+03, 2.295630e+12
5.865663e+03, 1.900145e+12
5.871529e+03, 1.768985e+12
5.877401e+03, 1.339234e+12
5.883278e+03, 1.134289e+12
5.889161e+03, 5.780238e+11
5.895050e+03, 4.757297e+11
5.900945e+03, 7.626047e+11
5.906846e+03, 1.110146e+12
5.912753e+03, 1.287026e+12
5.918666e+03, 1.439780e+12
5.924585e+03, 1.475957e+12
5.930509e+03, 1.607542e+12
5.936440e+03, 1.863303e+12
5.942376e+03, 2.045160e+12
5.948319e+03, 1.874237e+12
5.954267e+03, 1.907775e+12
5.960221e+03, 1.848337e+12
5.966181e+03, 2.110827e+12
5.972148e+03, 2.227689e+12
5.978120e+03, 2.263538e+12
5.984098e+03, 2.581857e+12
5.990082e+03, 2.811402e+12
5.996072e+03, 2.826006e+12
6.002068e+03, 2.888194e+12
6.008070e+03, 2.770683e+12
6.014078e+03, 3.257124e+12
6.020092e+03, 3.350568e+12
6.026112e+03, 3.746707e+12
6.032139e+03, 3.984132e+12
6.038171e+03, 4.057556e+12
6.044209e+03, 4.097384e+12
6.050253e+03, 4.501608e+12
6.056303e+03, 4.689938e+12
6.062360e+03, 4.834946e+12
6.068422e+03, 4.935195e+12
6.074490e+03, 5.639640e+12
6.080565e+03, 5.982768e+12
6.086645e+03, 6.429644e+12
6.092732e+03, 5.794848e+12
6.098825e+03, 5.807929e+12
6.104924e+03, 4.857699e+12
6.111029e+03, 5.700965e+12
6.117140e+03, 6.456585e+12
6.123257e+03, 4.978971e+12
6.129380e+03, 6.502766e+12
6.135509e+03, 6.821466e+12
6.141645e+03, 7.349373e+12
6.147787e+03, 7.279461e+12
6.153934e+03, 4.953156e+12
6.160088e+03, 3.195294e+12
6.166248e+03, 1.888817e+12
6.172415e+03, 2.445803e+12
6.178587e+03, 2.247947e+12
6.184766e+03, 2.504829e+12
6.190950e+03, 1.582323e+12
6.197141e+03, 1.764253e+12
6.203338e+03, 2.043660e+12
6.209542e+03, 2.432357e+12
6.215751e+03, 1.669147e+12
6.221967e+03, 1.720857e+12
6.228189e+03, 1.301697e+12
6.234417e+03, 1.555200e+12
6.240652e+03, 1.628767e+12
6.246892e+03, 1.753005e+12
6.253139e+03, 2.112789e+12
6.259392e+03, 2.269303e+12
6.265652e+03, 2.484222e+12
6.271917e+03, 2.528564e+12
6.278189e+03, 2.468363e+12
6.284467e+03, 2.673110e+12
6.290752e+03, 2.850723e+12
6.297043e+03, 2.780197e+12
6.303340e+03, 3.158366e+12
6.309643e+03, 3.265792e+12
6.315953e+03, 3.922375e+12
6.322269e+03, 3.465632e+12
6.328591e+03, 3.565568e+12
6.334920e+03, 3.872780e+12
6.341254e+03, 4.301869e+12
6.347596e+03, 4.818504e+12
6.353943e+03, 4.123937e+12
6.360297e+03, 3.277856e+12
6.366658e+03, 3.532169e+12
6.373024e+03, 3.679365e+12
6.379397e+03, 3.646878e+12
6.385777e+03, 3.342019e+12
6.392162e+03, 3.328533e+12
6.398555e+03, 4.110412e+12
6.404953e+03, 4.362743e+12
6.411358e+03, 5.264260e+12
6.417769e+03, 4.418249e+12
6.424187e+03, 4.129444e+12
6.430611e+03, 4.315875e+12
6.437042e+03, 4.758759e+12
6.443479e+03, 5.058613e+12
6.449923e+03, 5.138621e+12
6.456372e+03, 5.223205e+12
6.462829e+03, 5.037173e+12
6.469292e+03, 6.486519e+12
6.475761e+03, 6.970775e+12
6.482237e+03, 5.764826e+12
6.488719e+03, 4.939304e+12
6.495208e+03, 5.207336e+12
6.501703e+03, 6.024058e+12
6.508205e+03, 7.091037e+12
6.514713e+03, 6.614081e+12
6.521227e+03, 6.975409e+12
6.527749e+03, 7.604036e+12
6.534276e+03, 7.863130e+12
6.540811e+03, 8.756668e+12
6.547352e+03, 7.421719e+12
6.553899e+03, 6.483484e+12
6.560453e+03, 6.952789e+12
6.567013e+03, 6.645784e+12
6.573580e+03, 6.098835e+12
6.580154e+03, 6.359336e+12
6.586734e+03, 6.915111e+12
6.593321e+03, 6.995966e+12
6.599914e+03, 6.773105e+12
6.606514e+03, 6.800365e+12
6.613120e+03, 6.401447e+12
6.619734e+03, 6.037057e+12
6.626353e+03, 5.680825e+12
6.632980e+03, 6.074428e+12
6.639613e+03, 5.617006e+12
6.646252e+03, 5.963052e+12
6.652899e+03, 3.979305e+12
6.659551e+03, 3.581996e+12
6.666211e+03, 4.401227e+12
6.672877e+03, 4.500251e+12
6.679550e+03, 4.122018e+12
6.686230e+03, 2.522333e+12
6.692916e+03, 3.297846e+12
6.699609e+03, 3.476875e+12
6.706308e+03, 3.423325e+12
6.713015e+03, 3.355550e+12
6.719728e+03, 2.157291e+12
6.726447e+03, 2.332001e+12
6.733174e+03, 2.675185e+12
6.739907e+03, 2.814024e+12
6.746647e+03, 2.997877e+12
6.753394e+03, 2.489581e+12
6.760147e+03, 2.809575e+12
6.766907e+03, 3.263060e+12
6.773674e+03, 3.784692e+12
6.780448e+03, 3.456078e+12
6.787228e+03, 2.363944e+12
6.794015e+03, 2.722612e+12
6.800809e+03, 3.083984e+12
6.807610e+03, 3.277359e+12
6.814418e+03, 3.421497e+12
6.821232e+03, 3.359035e+12
6.828053e+03, 3.513912e+12
6.834882e+03, 3.776819e+12
6.841716e+03, 3.878071e+12
6.848558e+03, 3.970187e+12
6.855407e+03, 3.098855e+12
6.862262e+03, 3.207236e+12
6.869124e+03, 3.590679e+12
6.875994e+03, 3.910214e+12
6.882869e+03, 3.943267e+12
6.889752e+03, 3.861884e+12
6.896642e+03, 4.328461e+12
6.903539e+03, 4.286979e+12
6.910442e+03, 5.010510e+12
6.917353e+03, 4.891440e+12
6.924270e+03, 5.066705e+12
6.931194e+03, 5.641335e+12
6.938126e+03, 5.824088e+12
6.945064e+03, 6.814557e+12
6.952009e+03, 7.348414e+12
6.958961e+03, 7.219729e+12
6.965920e+03, 8.070858e+12
6.972886e+03, 8.340317e+12
6.979859e+03, 8.336711e+12
6.986838e+03, 9.803074e+12
6.993825e+03, 8.256829e+12
7.000819e+03, 8.959306e+12
7.007820e+03, 9.330279e+12
7.014828e+03, 1.011068e+13
7.021843e+03, 1.069756e+13
7.028864e+03, 1.276417e+13
7.035893e+03, 1.152089e+13
7.042929e+03, 1.424287e+13
7.049972e+03, 1.578894e+13
7.057022e+03, 7.894219e+12
7.064079e+03, 4.060160e+12
7.071143e+03, 5.857245e+12
7.078214e+03, 6.460541e+12
7.085292e+03, 6.995722e+12
7.092378e+03, 2.843204e+12
7.099470e+03, 3.057960e+12
7.106570e+03, 3.878589e+12
7.113676e+03, 4.476068e+12
7.120790e+03, 5.652787e+12
7.127911e+03, 3.112549e+12
7.135039e+03, 2.220922e+12
7.142174e+03, 2.573693e+12
7.149316e+03, 3.006423e+12
7.156465e+03, 3.678213e+12
7.163622e+03, 3.058925e+12
7.170785e+03, 3.570593e+12
7.177956e+03, 4.288684e+12
7.185134e+03, 4.893055e+12
7.192319e+03, 5.391522e+12
7.199511e+03, 4.389764e+12
7.206711e+03, 4.107412e+12
7.213918e+03, 4.471533e+12
7.221132e+03, 5.275376e+12
7.228353e+03, 5.965917e+12
7.235581e+03, 6.270255e+12
7.242817e+03, 6.780390e+12
7.250059e+03, 8.181497e+12
7.257309e+03, 8.899509e+12
7.264567e+03, 9.424456e+12
7.271831e+03, 8.784962e+12
7.279103e+03, 9.603699e+12
7.286382e+03, 1.031792e+13
7.293669e+03, 1.110223e+13
7.300962e+03, 1.253854e+13
7.308263e+03, 1.285350e+13
7.315572e+03, 1.396284e+13
7.322887e+03, 1.494422e+13
7.330210e+03, 1.452053e+13
7.337540e+03, 1.622523e+13
7.344878e+03, 1.606622e+13
7.352223e+03, 1.682597e+13
7.359575e+03, 1.734037e+13
7.366934e+03, 1.867955e+13
7.374301e+03, 1.958834e+13
7.381676e+03, 1.949846e+13
7.389057e+03, 2.026622e+13
7.396446e+03, 2.087112e+13
7.403843e+03, 2.015715e+13
7.411247e+03, 2.161805e+13
7.418658e+03, 2.035685e+13
7.426077e+03, 2.066524e+13
7.433503e+03, 2.206128e+13
7.440936e+03, 2.192049e+13
7.448377e+03, 2.097195e+13
7.455825e+03, 2.151828e+13
7.463281e+03, 2.122822e+13
7.470745e+03, 2.244008e+13
7.478215e+03, 2.259214e+13
7.485694e+03, 2.183830e+13
7.493179e+03, 2.192777e+13
7.500672e+03, 2.254246e+13
7.508173e+03, 2.288938e+13
7.515681e+03, 2.255251e+13
7.523197e+03, 2.328315e+13
7.530720e+03, 2.238416e+13
7.538251e+03, 2.329464e+13
7.545789e+03, 2.472589e+13
7.553335e+03, 2.440328e+13
7.560888e+03, 2.527051e+13
7.568449e+03, 2.437899e+13
7.576018e+03, 2.290829e+13
7.583594e+03, 2.537849e+13
7.591177e+03, 1.761175e+13
7.598768e+03, 1.655821e+13
7.606367e+03, 1.693263e+13
7.613973e+03, 1.732057e+13
7.621587e+03, 1.955434e+13
7.629209e+03, 1.457601e+13
7.636838e+03, 1.283140e+13
7.644475e+03, 1.312478e+13
7.652120e+03, 1.298053e+13
7.659772e+03, 1.031173e+13
7.667431e+03, 4.136385e+12
7.675099e+03, 7.188403e+12
7.682774e+03, 8.897235e+12
7.690457e+03, 9.349261e+12
7.698147e+03, 5.948693e+12
7.705845e+03, 7.155237e+12
7.713551e+03, 9.727292e+12
7.721265e+03, 1.078128e+13
7.728986e+03, 1.224829e+13
7.736715e+03, 1.370076e+13
7.744452e+03, 1.298130e+13
7.752196e+03, 1.016253e+13
7.759948e+03, 1.062465e+13
7.767708e+03, 1.141811e+13
7.775476e+03, 1.230274e+13
7.783252e+03, 1.152904e+13
7.791035e+03, 1.160326e+13
7.798826e+03, 1.218374e+13
7.806625e+03, 1.387364e+13
7.814431e+03, 1.511463e+13
7.822246e+03, 1.438168e+13
7.830068e+03, 1.264375e+13
7.837898e+03, 1.302196e+13
7.845736e+03, 1.335808e+13
7.853582e+03, 1.459851e+13
7.861435e+03, 1.511032e+13
7.869297e+03, 1.479118e+13
7.877166e+03, 1.621572e+13
7.885043e+03, 1.728616e+13
7.892928e+03, 1.810154e+13
7.900821e+03, 1.807898e+13
7.908722e+03, 1.708973e+13
7.916631e+03, 1.639653e+13
7.924547e+03, 1.724261e+13
7.932472e+03, 1.836176e+13
7.940404e+03, 1.856517e+13
7.948345e+03, 1.844783e+13
7.956293e+03, 2.024066e+13
7.964249e+03, 2.122919e+13
7.972214e+03, 2.178575e+13
7.980186e+03, 2.147227e+13
7.988166e+03, 2.094995e+13
7.996154e+03, 2.162517e+13
8.004150e+03, 2.207380e+13
8.012154e+03, 2.282004e+13
8.020167e+03, 2.371057e+13
8.028187e+03, 2.373262e+13
8.036215e+03, 2.438641e+13
8.044251e+03, 2.474867e+13
8.052295e+03, 2.451090e+13
8.060348e+03, 2.567745e+13
8.068408e+03, 2.533342e+13
8.076476e+03, 2.546980e+13
8.084553e+03, 2.680526e+13
8.092637e+03, 2.718795e+13
8.100730e+03, 2.811628e+13
8.108831e+03, 2.829495e+13
8.116940e+03, 2.684674e+13
8.125057e+03, 2.744467e+13
8.133182e+03, 2.987367e+13
8.141315e+03, 2.970110e+13
8.149456e+03, 3.066159e+13
8.157606e+03, 3.041361e+13
8.165763e+03, 2.939670e+13
8.173929e+03, 2.956706e+13
8.182103e+03, 2.176584e+13
8.190285e+03, 2.262722e+13
8.198475e+03, 1.632932e+13
8.206674e+03, 2.324215e+13
8.214880e+03, 2.519928e+13
8.223095e+03, 2.581133e+13
8.231318e+03, 2.737398e+13
8.239550e+03, 2.803363e+13
8.247789e+03, 2.813470e+13
8.256037e+03, 2.682463e+13
8.264293e+03, 2.812466e+13
8.272557e+03, 2.556030e+13
8.280830e+03, 2.517859e+13
8.289111e+03, 2.481738e+13
8.297400e+03, 2.516364e+13
8.305697e+03, 2.422414e+13
8.314003e+03, 2.522312e+13
8.322317e+03, 2.589365e+13
8.330639e+03, 2.501529e+13
8.338970e+03, 2.511821e+13
8.347309e+03, 2.459734e+13
8.355656e+03, 2.424875e+13
8.364012e+03, 2.473902e+13
8.372376e+03, 2.530585e+13
8.380748e+03, 2.395679e+13
8.389129e+03, 2.220232e+13
8.397518e+03, 2.453371e+13
8.405916e+03, 2.589037e+13
8.414322e+03, 2.507169e+13
8.422736e+03, 2.455198e+13
8.431159e+03, 2.362479e+13
8.439590e+03, 1.761422e+13
8.448029e+03, 1.580277e+13
8.456477e+03, 1.366733e+13
8.464934e+03, 1.443976e+13
8.473399e+03, 1.373868e+13
8.481872e+03, 1.563199e+13
8.490354e+03, 1.644488e+13
8.498845e+03, 1.657546e+13
8.507343e+03, 1.629116e+13
8.515851e+03, 1.599240e+13
8.524367e+03, 1.624529e+13
8.532891e+03, 1.650618e+13
8.541424e+03, 1.735408e+13
8.549965e+03, 1.887754e+13
8.558515e+03, 1.947827e+13
8.567074e+03, 2.006567e+13
8.575641e+03, 2.021608e+13
8.584216e+03, 2.061818e+13
8.592801e+03, 2.079477e+13
8.601393e+03, 2.136732e+13
8.609995e+03, 2.188355e+13
8.618605e+03, 2.278161e+13
8.627223e+03, 2.371099e+13
8.635851e+03, 2.362474e+13
8.644486e+03, 2.442145e+13
8.653131e+03, 2.423874e+13
8.661784e+03, 2.315291e+13
8.670446e+03, 2.519273e+13
8.679116e+03, 2.450516e+13
8.687795e+03, 2.383808e+13
8.696483e+03, 2.199850e+13
8.705180e+03, 2.249210e+13
8.713885e+03, 2.163874e+13
8.722599e+03, 2.260604e+13
8.731321e+03, 2.470533e+13
8.740053e+03, 2.367030e+13
8.748793e+03, 2.519029e+13
8.757542e+03, 2.628536e+13
8.766299e+03, 2.648863e+13
8.775065e+03, 2.906382e+13
8.783840e+03, 2.788444e+13
8.792624e+03, 2.899661e+13
8.801417e+03, 2.675168e+13
8.810218e+03, 2.712769e+13
8.819029e+03, 3.083357e+13
8.827848e+03, 2.640402e+13
8.836675e+03, 3.136606e+13
8.845512e+03, 2.993438e+13
8.854358e+03, 3.046359e+13
8.863212e+03, 2.089085e+13
8.872075e+03, 1.904417e+13
8.880947e+03, 2.024587e+13
8.889828e+03, 2.064459e+13
8.898718e+03, 2.167220e+13
8.907617e+03, 2.391705e+13
8.916524e+03, 2.345799e+13
8.925441e+03, 2.490921e+13
8.934366e+03, 2.392200e+13
8.943301e+03, 2.247295e+13
8.952244e+03, 2.276055e+13
8.961196e+03, 2.321080e+13
8.970157e+03, 2.380259e+13
8.979128e+03, 2.441155e+13
8.988107e+03, 2.643098e+13
8.997095e+03, 2.658895e+13
9.006092e+03, 2.626025e+13
9.015098e+03, 2.598775e+13
9.024113e+03, 2.567495e+13
9.033137e+03, 2.564904e+13
9.042170e+03, 2.746812e+13
9.051213e+03, 2.778864e+13
9.060264e+03, 2.683392e+13
9.069324e+03, 2.846460e+13
9.078393e+03, 2.873132e+13
9.087472e+03, 2.779393e+13
9.096559e+03, 2.968116e+13
9.105656e+03, 3.014460e+13
9.114761e+03, 3.131891e+13
9.123876e+03, 3.117090e+13
9.133000e+03, 3.130667e+13
9.142133e+03, 3.032247e+13
9.151275e+03, 3.143274e+13
9.160426e+03, 3.281817e+13
9.169587e+03, 3.316780e+13
9.178757e+03, 3.166159e+13
9.187935e+03, 3.382939e+13
9.197123e+03, 3.324852e+13
9.206320e+03, 3.197933e+13
9.215527e+03, 3.090939e+13
9.224742e+03, 2.842509e+13
9.233967e+03, 2.715599e+13
9.243201e+03, 2.913465e+13
9.252444e+03, 2.790923e+13
9.261697e+03, 2.873294e+13
9.270958e+03, 2.957072e+13
9.280229e+03, 2.797467e+13
9.289509e+03, 2.789910e+13
9.298799e+03, 2.611306e+13
9.308098e+03, 2.659867e+13
9.317406e+03, 2.696309e+13
9.326723e+03, 2.643380e+13
9.336050e+03, 2.785261e+13
9.345386e+03, 2.847441e+13
9.354731e+03, 2.729172e+13
9.364086e+03, 2.718961e+13
9.373450e+03, 2.773619e+13
9.382824e+03, 2.765131e+13
9.392206e+03, 2.743437e+13
9.401599e+03, 2.764078e+13
9.411000e+03, 2.909724e+13
9.420411e+03, 2.911869e+13
9.429832e+03, 2.965456e+13
9.439262e+03, 2.939974e+13
9.448701e+03, 2.870560e+13
9.458149e+03, 2.978788e+13
9.467608e+03, 2.903436e+13
9.477075e+03, 3.098554e+13
9.486552e+03, 3.078814e+13
9.496039e+03, 3.087733e+13
9.505535e+03, 3.120825e+13
9.515040e+03, 3.057330e+13
9.524555e+03, 3.179035e+13
9.534080e+03, 3.173079e+13
9.543614e+03, 3.134299e+13
9.553158e+03, 3.124888e+13
9.562711e+03, 3.206813e+13
9.572274e+03, 3.279874e+13
9.581846e+03, 3.323066e+13
9.591428e+03, 3.294847e+13
9.601019e+03, 3.011540e+13
9.610620e+03, 3.274908e+13
9.620231e+03, 3.332771e+13
9.629851e+03, 3.368510e+13
9.639481e+03, 3.016069e+13
9.649120e+03, 3.169480e+13
9.658769e+03, 3.358932e+13
9.668428e+03, 3.365564e+13
9.678097e+03, 3.141950e+13
9.687775e+03, 3.245272e+13
9.697463e+03, 3.454281e+13
9.707160e+03, 3.157735e+13
9.716867e+03, 3.358298e+13
9.726584e+03, 3.072574e+13
9.736311e+03, 3.201871e+13
9.746047e+03, 3.006432e+13
9.755793e+03, 3.195426e+13
9.765549e+03, 3.276326e+13
9.775314e+03, 3.082194e+13
9.785090e+03, 3.016344e+13
9.794875e+03, 3.145233e+13
9.804670e+03, 3.314491e+13
9.814474e+03, 3.159613e+13
9.824289e+03, 3.168821e+13
9.834113e+03, 3.092331e+13
9.843947e+03, 3.144506e+13
9.853791e+03, 3.249097e+13
9.863645e+03, 3.223464e+13
9.873509e+03, 3.238504e+13
9.883382e+03, 3.376977e+13
9.893265e+03, 3.208821e+13
9.903159e+03, 1.863554e+13
9.913062e+03, 1.495663e+13
9.922975e+03, 1.608846e+13
9.932898e+03, 1.799350e+13
9.942831e+03, 2.134489e+13
9.952774e+03, 2.392260e+13
9.962726e+03, 2.319180e+13
9.972689e+03, 2.125640e+13
9.982662e+03, 2.186947e+13
9.992644e+03, 2.197580e+13
1.000264e+04, 2.238222e+13
1.001264e+04, 2.254526e+13
1.002265e+04, 2.422380e+13
1.003268e+04, 2.566263e+13
1.004271e+04, 2.374680e+13
1.005275e+04, 2.178997e+13
1.006280e+04, 2.033287e+13
1.007287e+04, 2.500005e+13
1.008294e+04, 2.720446e+13
1.009302e+04, 2.371758e+13
1.010311e+04, 2.841817e+13
1.011322e+04, 2.437846e+13
1.012333e+04, 2.583878e+13
1.013345e+04, 2.550964e+13
1.014359e+04, 2.529165e+13
1.015373e+04, 2.616874e+13
1.016389e+04, 2.271253e+13
1.017405e+04, 2.734314e+13
1.018422e+04, 2.353154e+13
1.019441e+04, 2.569191e+13
1.020460e+04, 2.537859e+13
1.021481e+04, 2.756389e+13
1.022502e+04, 2.480904e+13
1.023525e+04, 2.616802e+13
1.024548e+04, 2.937100e+13
1.025573e+04, 2.381345e+13
1.026598e+04, 2.041735e+13
1.027625e+04, 2.244727e+13
1.028652e+04, 2.317060e+13
1.029681e+04, 2.400700e+13
1.030711e+04, 2.485487e+13
1.031742e+04, 2.509096e+13
1.032773e+04, 2.556295e+13
1.033806e+04, 2.390486e+13
1.034840e+04, 2.481190e+13
1.035875e+04, 2.620544e+13
1.036911e+04, 2.796424e+13
1.037947e+04, 2.647154e+13
1.038985e+04, 2.570749e+13
1.040024e+04, 2.612669e+13
1.041064e+04, 2.912141e+13
1.042106e+04, 2.624519e+13
1.043148e+04, 2.351105e+13
1.044191e+04, 2.869285e+13
1.045235e+04, 3.045621e+13
1.046280e+04, 3.114051e+13
1.047326e+04, 2.293076e+13
1.048374e+04, 2.756471e+13
1.049422e+04, 2.956536e+13
1.050472e+04, 2.928802e+13
1.051522e+04, 2.528945e+13
1.052574e+04, 2.554262e+13
1.053626e+04, 3.209254e+13
1.054680e+04, 2.839848e+13
1.055734e+04, 2.700815e+13
1.056790e+04, 2.653270e+13
1.057847e+04, 2.982031e+13
1.058905e+04, 2.985914e+13
1.059964e+04, 3.103445e+13
1.061024e+04, 2.800456e+13
1.062085e+04, 2.717669e+13
1.063147e+04, 3.004174e+13
1.064210e+04, 3.229109e+13
1.065274e+04, 3.041376e+13
1.066339e+04, 2.893858e+13
1.067406e+04, 2.729852e+13
1.068473e+04, 3.033943e+13
1.069542e+04, 3.076181e+13
1.070611e+04, 3.089661e+13
1.071682e+04, 3.249409e+13
1.072753e+04, 2.982227e+13
1.073826e+04, 3.149843e+13
1.074900e+04, 3.208416e+13
1.075975e+04, 3.294117e+13
1.077051e+04, 3.293313e+13
1.078128e+04, 3.338400e+13
1.079206e+04, 3.248143e+13
1.080285e+04, 3.286893e+13
1.081366e+04, 3.166795e+13
1.082447e+04, 3.352717e+13
1.083529e+04, 3.344080e+13
1.084613e+04, 3.335629e+13
1.085698e+04, 3.272738e+13
1.086783e+04, 3.329098e+13
1.087870e+04, 3.433153e+13
1.088958e+04, 3.271461e+13
1.090047e+04, 3.396061e+13
1.091137e+04, 3.294150e+13
1.092228e+04, 3.317335e+13
1.093320e+04, 3.361496e+13
1.094414e+04, 3.425513e+13
1.095508e+04, 3.345357e+13
1.096604e+04, 3.331921e+13
1.097700e+04, 3.207884e+13
1.098798e+04, 3.283249e+13
1.099897e+04, 3.309775e+13
1.100997e+04, 3.342614e+13
1.102098e+04, 3.164396e+13
1.103200e+04, 3.199640e+13
1.104303e+04, 3.206096e+13
1.105407e+04, 3.103059e+13
1.106513e+04, 3.177305e+13
1.107619e+04, 3.228054e+13
1.108727e+04, 3.183590e+13
1.109835e+04, 3.166294e+13
1.110945e+04, 3.170333e+13
1.112056e+04, 3.130032e+13
1.113168e+04, 3.216051e+13
1.114281e+04, 3.314036e+13
1.115396e+04, 3.176080e+13
1.116511e+04, 3.283363e+13
1.117628e+04, 3.196581e+13
1.118745e+04, 3.277629e+13
1.119864e+04, 3.180125e+13
1.120984e+04, 3.213874e+13
1.122105e+04, 3.210802e+13
1.123227e+04, 3.307179e+13
1.124350e+04, 3.257358e+13
1.125474e+04, 3.185278e+13
1.126600e+04, 3.328854e+13
1.127727e+04, 3.214519e+13
1.128854e+04, 3.271830e+13
1.129983e+04, 3.223791e+13
1.131113e+04, 3.322619e+13
1.132244e+04, 3.307252e+13
1.133376e+04, 3.273439e+13
1.134510e+04, 3.242926e+13
1.135644e+04, 3.202411e+13
1.136780e+04, 3.198607e+13
1.137917e+04, 2.733287e+13
1.139055e+04, 2.873394e+13
1.140194e+04, 2.591041e+13
1.141334e+04, 2.857689e+13
1.142475e+04, 3.152590e+13
1.143618e+04, 3.241100e+13
1.144761e+04, 3.199303e+13
1.145906e+04, 3.230257e+13
1.147052e+04, 3.281408e+13
1.148199e+04, 3.220053e+13
1.149347e+04, 3.295361e+13
1.150497e+04, 3.320534e+13
1.151647e+04, 3.325923e+13
1.152799e+04, 3.305771e+13
1.153952e+04, 3.266343e+13
1.155106e+04, 3.256275e+13
1.156261e+04, 3.263111e+13
1.157417e+04, 3.286007e+13
1.158574e+04, 3.300889e+13
1.159733e+04, 3.229455e+13
1.160893e+04, 3.039159e+13
1.162054e+04, 3.285820e+13
1.163216e+04, 3.302656e+13
1.164379e+04, 3.179086e+13
1.165543e+04, 3.238231e+13
1.166709e+04, 3.298791e+13
1.167875e+04, 3.264472e+13
1.169043e+04, 2.721747e+13
1.170212e+04, 3.201007e+13
1.171383e+04, 3.248084e+13
1.172554e+04, 3.326203e+13
1.173726e+04, 3.209599e+13
1.174900e+04, 3.237956e+13
1.176075e+04, 3.210582e+13
1.177251e+04, 2.431358e+13
1.178428e+04, 3.003999e+13
1.179607e+04, 3.202594e+13
1.180786e+04, 3.230209e+13
1.181967e+04, 3.247110e+13
1.183149e+04, 3.113048e+13
1.184332e+04, 3.259999e+13
1.185517e+04, 3.214995e+13
1.186702e+04, 3.244254e+13
1.187889e+04, 3.252688e+13
1.189077e+04, 2.911605e+13
1.190266e+04, 3.271236e+13
1.191456e+04, 3.215332e+13
1.192648e+04, 3.268899e+13
1.193840e+04, 3.137657e+13
1.195034e+04, 3.031574e+13
1.196229e+04, 3.009801e+13
1.197425e+04, 2.778725e+13
1.198623e+04, 3.025501e+13
1.199821e+04, 2.919741e+13
1.201021e+04, 2.964432e+13
1.202222e+04, 3.022911e+13
1.203424e+04, 3.007105e+13
1.204628e+04, 3.073588e+13
1.205833e+04, 3.192406e+13
1.207038e+04, 3.058217e+13
1.208245e+04, 3.158128e+13
1.209454e+04, 3.045059e+13
1.210663e+04, 3.024387e+13
1.211874e+04, 3.015339e+13
1.213086e+04, 3.080570e+13
1.214299e+04, 3.186535e+13
1.215513e+04, 3.187658e+13
1.216729e+04, 3.148271e+13
1.217945e+04, 3.191661e+13
1.219163e+04, 3.161270e+13
1.220382e+04, 3.047637e+13
1.221603e+04, 3.094108e+13
1.222824e+04, 3.102820e+13
1.224047e+04, 3.104879e+13
1.225271e+04, 3.201544e+13
1.226497e+04, 3.179585e+13
1.227723e+04, 3.153473e+13
1.228951e+04, 3.176062e+13
1.230180e+04, 3.155179e+13
1.231410e+04, 3.120552e+13
1.232641e+04, 3.083736e+13
1.233874e+04, 3.111415e+13
1.235108e+04, 3.111497e+13
1.236343e+04, 3.080909e+13
1.237579e+04, 3.111318e+13
1.238817e+04, 3.037219e+13
1.240056e+04, 3.003011e+13
1.241296e+04, 2.823061e+13
1.242537e+04, 2.782749e+13
1.243780e+04, 2.589890e+13
1.245023e+04, 3.032956e+13
1.246268e+04, 3.030585e+13
1.247515e+04, 2.994007e+13
1.248762e+04, 3.029663e+13
1.250011e+04, 2.986795e+13
1.251261e+04, 2.958275e+13
1.252512e+04, 2.477567e+13
1.253765e+04, 3.031386e+13
1.255018e+04, 2.944114e+13
1.256273e+04, 3.026445e+13
1.257530e+04, 3.025968e+13
1.258787e+04, 3.024243e+13
1.260046e+04, 2.985964e+13
1.261306e+04, 3.085336e+13
1.262567e+04, 2.977585e+13
1.263830e+04, 2.926845e+13
1.265094e+04, 3.012319e+13
1.266359e+04, 3.046842e+13
1.267625e+04, 2.938502e+13
1.268893e+04, 2.989365e+13
1.270162e+04, 3.001427e+13
1.271432e+04, 3.030920e+13
1.272703e+04, 3.101518e+13
1.273976e+04, 2.952871e+13
1.275250e+04, 2.973547e+13
1.276525e+04, 3.045053e+13
1.277802e+04, 3.009960e+13
1.279080e+04, 3.049802e+13
1.280359e+04, 3.020935e+13
1.281639e+04, 2.988273e+13
1.282921e+04, 2.889613e+13
1.284204e+04, 3.013602e+13
1.285488e+04, 2.924862e+13
1.286773e+04, 2.959036e+13
1.288060e+04, 2.946506e+13
1.289348e+04, 2.964848e+13
1.290637e+04, 2.855850e+13
1.291928e+04, 2.930599e+13
1.293220e+04, 2.952189e+13
1.294513e+04, 2.927924e+13
1.295808e+04, 3.042136e+13
1.297104e+04, 3.020084e+13
1.298401e+04, 2.999027e+13
1.299699e+04, 2.961095e+13
1.300999e+04, 2.961027e+13
1.302300e+04, 3.031057e+13
1.303602e+04, 2.989601e+13
1.304906e+04, 3.026634e+13
1.306211e+04, 3.007644e+13
1.307517e+04, 2.967068e+13
1.308824e+04, 2.942042e+13
1.310133e+04, 2.992311e+13
1.311443e+04, 2.996302e+13
1.312755e+04, 2.716319e+13
1.314067e+04, 2.923917e+13
1.315382e+04, 2.779141e+13
1.316697e+04, 3.000970e+13
1.318014e+04, 2.984060e+13
1.319332e+04, 3.016410e+13
1.320651e+04, 2.920432e+13
1.321972e+04, 2.890370e+13
1.323294e+04, 2.940522e+13
1.324617e+04, 2.928726e+13
1.325941e+04, 2.894981e+13
1.327267e+04, 2.843372e+13
1.328595e+04, 2.871902e+13
1.329923e+04, 2.796717e+13
1.331253e+04, 2.758910e+13
1.332584e+04, 2.561710e+13
1.333917e+04, 2.689895e+13
1.335251e+04, 2.242776e+13
1.336586e+04, 2.423438e+13
1.337923e+04, 2.336262e+13
1.339261e+04, 2.509142e+13
1.340600e+04, 2.448304e+13
1.341941e+04, 2.390385e+13
1.343283e+04, 2.330877e+13
1.344626e+04, 2.360681e+13
1.345970e+04, 2.460083e+13
1.347316e+04, 2.341884e+13
1.348664e+04, 2.428700e+13
1.350012e+04, 2.351034e+13
1.351362e+04, 2.377988e+13
1.352714e+04, 2.411944e+13
1.354066e+04, 2.298157e+13
1.355421e+04, 2.339094e+13
1.356776e+04, 2.440585e+13
1.358133e+04, 2.332746e+13
1.359491e+04, 2.377268e+13
1.360850e+04, 2.390526e+13
1.362211e+04, 2.254475e+13
1.363573e+04, 2.371464e+13
1.364937e+04, 2.320012e+13
1.366302e+04, 2.392194e+13
1.367668e+04, 2.419207e+13
1.369036e+04, 2.344998e+13
1.370405e+04, 2.394961e+13
1.371775e+04, 2.384124e+13
1.373147e+04, 2.391279e+13
1.374520e+04, 2.402243e+13
1.375895e+04, 2.438947e+13
1.377271e+04, 2.434231e+13
1.378648e+04, 2.386816e+13
1.380027e+04, 2.457161e+13
1.381407e+04, 2.474921e+13
1.382788e+04, 2.319621e+13
1.384171e+04, 2.437802e+13
1.385555e+04, 2.377528e+13
1.386941e+04, 2.407623e+13
1.388327e+04, 2.284072e+13
1.389716e+04, 2.345953e+13
1.391106e+04, 2.171112e+13
1.392497e+04, 2.210687e+13
1.393889e+04, 2.248305e+13
1.395283e+04, 2.236776e+13
1.396678e+04, 2.279429e+13
1.398075e+04, 2.140569e+13
1.399473e+04, 2.179860e+13
1.400873e+04, 2.172038e+13
1.402273e+04, 2.261660e+13
1.403676e+04, 2.294842e+13
1.405079e+04, 2.186145e+13
1.406484e+04, 2.256782e+13
1.407891e+04, 2.179014e+13
1.409299e+04, 2.165097e+13
1.410708e+04, 2.170942e+13
1.412119e+04, 2.048192e+13
1.413531e+04, 2.170564e+13
1.414944e+04, 2.120701e+13
1.416359e+04, 2.134645e+13
1.417776e+04, 2.020118e+13
1.419194e+04, 2.063705e+13
1.420613e+04, 2.173183e+13
1.422033e+04, 2.099027e+13
1.423455e+04, 2.019934e+13
1.424879e+04, 2.110725e+13
1.426304e+04, 2.047955e+13
1.427730e+04, 2.080003e+13
1.429158e+04, 1.996162e+13
1.430587e+04, 2.161465e+13
1.432018e+04, 2.083790e+13
1.433450e+04, 2.051942e+13
1.434883e+04, 2.084653e+13
1.436318e+04, 2.057923e+13
1.437754e+04, 2.114468e+13
1.439192e+04, 2.034447e+13
1.440631e+04, 2.070573e+13
1.442072e+04, 2.071488e+13
1.443514e+04, 2.184623e+13
1.444957e+04, 2.000079e+13
1.446402e+04, 2.112874e+13
1.447849e+04, 2.089822e+13
1.449297e+04, 2.129758e+13
1.450746e+04, 1.983859e+13
1.452197e+04, 2.190006e+13
1.453649e+04, 2.078798e+13
1.455102e+04, 2.148347e+13
1.456558e+04, 1.964795e+13
1.458014e+04, 2.147740e+13
1.459472e+04, 2.160178e+13
1.460932e+04, 2.018197e+13
1.462393e+04, 1.941205e+13
1.463855e+04, 2.078548e+13
1.465319e+04, 2.102389e+13
1.466784e+04, 2.046747e+13
1.468251e+04, 1.940581e+13
1.469719e+04, 1.962724e+13
1.471189e+04, 2.032750e+13
1.472660e+04, 2.078203e+13
1.474133e+04, 1.992016e+13
1.475607e+04, 2.014047e+13
1.477082e+04, 1.977549e+13
1.478560e+04, 2.045373e+13
1.480038e+04, 1.957168e+13
1.481518e+04, 1.984330e+13
1.483000e+04, 2.067573e+13
1.484483e+04, 2.011386e+13
1.485967e+04, 2.051370e+13
1.487453e+04, 2.066928e+13
1.488941e+04, 1.955904e+13
1.490429e+04, 1.995331e+13
1.491920e+04, 2.062332e+13
1.493412e+04, 2.037601e+13
1.494905e+04, 2.020768e+13
1.496400e+04, 2.047322e+13
1.497897e+04, 2.071487e+13
1.499394e+04, 2.057078e+13
1.500894e+04, 1.997786e+13
1.502395e+04, 1.942239e+13
1.503897e+04, 2.061341e+13
1.505401e+04, 2.034104e+13
1.506906e+04, 2.068287e+13
1.508413e+04, 2.006840e+13
1.509922e+04, 2.077055e+13
1.511432e+04, 2.052373e+13
1.512943e+04, 2.022484e+13
1.514456e+04, 2.067248e+13
1.515970e+04, 2.011312e+13
1.517486e+04, 1.872531e+13
1.519004e+04, 2.100379e+13
1.520523e+04, 2.057956e+13
1.522043e+04, 2.109251e+13
1.523566e+04, 2.104241e+13
1.525089e+04, 2.036410e+13
1.526614e+04, 1.999613e+13
1.528141e+04, 2.011487e+13
1.529669e+04, 2.108177e+13
1.531199e+04, 2.096270e+13
1.532730e+04, 1.958525e+13
1.534263e+04, 2.070942e+13
1.535797e+04, 2.095625e+13
1.537333e+04, 2.047034e+13
1.538870e+04, 2.066522e+13
1.540409e+04, 1.976202e+13
1.541949e+04, 2.010489e+13
1.543491e+04, 2.027583e+13
1.545035e+04, 2.100662e+13
1.546580e+04, 2.074051e+13
1.548126e+04, 2.040072e+13
1.549674e+04, 2.073057e+13
1.551224e+04, 2.022088e+13
1.552775e+04, 2.124382e+13
1.554328e+04, 1.999697e+13
1.555882e+04, 2.050220e+13
1.557438e+04, 2.006773e+13
1.558996e+04, 2.076676e+13
1.560555e+04, 2.061513e+13
1.562115e+04, 2.089071e+13
1.563677e+04, 2.093203e+13
1.565241e+04, 1.998711e+13
1.566806e+04, 2.112478e+13
1.568373e+04, 2.114607e+13
1.569941e+04, 2.069212e+13
1.571511e+04, 2.073864e+13
1.573083e+04, 2.038939e+13
1.574656e+04, 2.121475e+13
1.576231e+04, 2.063110e+13
1.577807e+04, 2.074847e+13
1.579385e+04, 2.130843e+13
1.580964e+04, 2.109738e+13
1.582545e+04, 2.133241e+13
1.584128e+04, 2.065263e+13
1.585712e+04, 2.143941e+13
1.587297e+04, 2.130327e+13
1.588885e+04, 2.090324e+13
1.590474e+04, 2.054878e+13
1.592064e+04, 2.099212e+13
1.593656e+04, 2.117812e+13
1.595250e+04, 2.149653e+13
1.596845e+04, 2.151395e+13
1.598442e+04, 2.137308e+13
1.600040e+04, 2.124001e+13
1.601640e+04, 2.138691e+13
1.603242e+04, 2.156383e+13
1.604845e+04, 2.091178e+13
1.606450e+04, 2.066398e+13
1.608057e+04, 2.098282e+13
1.609665e+04, 2.151599e+13
1.611274e+04, 2.128603e+13
1.612886e+04, 2.141276e+13
1.614498e+04, 2.120482e+13
1.616113e+04, 2.077573e+13
1.617729e+04, 2.174828e+13
1.619347e+04, 2.040321e+13
1.620966e+04, 2.064891e+13
1.622587e+04, 2.112196e+13
1.624210e+04, 2.146762e+13
1.625834e+04, 2.054521e+13
1.627460e+04, 2.150273e+13
1.629087e+04, 2.166743e+13
1.630716e+04, 2.143803e+13
1.632347e+04, 2.134505e+13
1.633979e+04, 2.162878e+13
1.635613e+04, 2.107634e+13
1.637249e+04, 2.117998e+13
1.638886e+04, 2.138864e+13
1.640525e+04, 2.146108e+13
1.642166e+04, 2.141834e+13
1.643808e+04, 2.165674e+13
1.645452e+04, 2.081774e+13
1.647097e+04, 2.155857e+13
1.648744e+04, 2.158141e+13
1.650393e+04, 2.155160e+13
1.652043e+04, 2.142632e+13
1.653695e+04, 2.101196e+13
1.655349e+04, 2.177538e+13
1.657004e+04, 2.180913e+13
1.658661e+04, 2.141763e+13
1.660320e+04, 2.138433e+13
1.661980e+04, 2.143135e+13
1.663642e+04, 2.168223e+13
1.665306e+04, 2.114289e+13
1.666971e+04, 2.122314e+13
1.668638e+04, 2.151516e+13
1.670307e+04, 2.137296e+13
1.671977e+04, 2.032326e+13
1.673649e+04, 2.128582e+13
1.675323e+04, 2.047491e+13
1.676998e+04, 2.104246e+13
1.678675e+04, 2.158136e+13
1.680354e+04, 2.134219e+13
1.682034e+04, 2.147194e+13
1.683716e+04, 2.138276e+13
1.685400e+04, 2.133041e+13
1.687085e+04, 2.075184e+13
1.688772e+04, 2.049489e+13
1.690461e+04, 2.037775e+13
1.692152e+04, 2.059965e+13
1.693844e+04, 2.107641e+13
1.695538e+04, 2.065721e+13
1.697233e+04, 2.039658e+13
1.698930e+04, 2.062209e+13
1.700629e+04, 2.030199e+13
1.702330e+04, 2.050933e+13
1.704032e+04, 2.019586e+13
1.705736e+04, 1.985196e+13
1.707442e+04, 1.955377e+13
1.709149e+04, 1.959383e+13
1.710859e+04, 1.837473e+13
1.712569e+04, 1.941258e+13
1.714282e+04, 1.896624e+13
1.715996e+04, 1.885456e+13
1.717712e+04, 1.851884e+13
1.719430e+04, 1.804751e+13
1.721149e+04, 1.883927e+13
1.722871e+04, 1.816997e+13
1.724593e+04, 1.868578e+13
1.726318e+04, 1.793900e+13
1.728044e+04, 1.848056e+13
1.729772e+04, 1.818766e+13
1.731502e+04, 1.756985e+13
1.733234e+04, 1.798996e+13
1.734967e+04, 1.701010e+13
1.736702e+04, 1.766008e+13
1.738439e+04, 1.768282e+13
1.740177e+04, 1.690507e+13
1.741917e+04, 1.715687e+13
1.743659e+04, 1.708970e+13
1.745403e+04, 1.714643e+13
1.747148e+04, 1.660335e+13
1.748895e+04, 1.700234e+13
1.750644e+04, 1.615305e+13
1.752395e+04, 1.683953e+13
1.754147e+04, 1.612695e+13
1.755901e+04, 1.524726e+13
1.757657e+04, 1.599366e+13
1.759415e+04, 1.586720e+13
1.761174e+04, 1.581925e+13
1.762936e+04, 1.530053e+13
1.764699e+04, 1.565296e+13
1.766463e+04, 1.590511e+13
1.768230e+04, 1.445755e+13
1.769998e+04, 1.578507e+13
1.771768e+04, 1.454985e+13
1.773540e+04, 1.521125e+13
1.775313e+04, 1.460113e+13
1.777089e+04, 1.433875e+13
1.778866e+04, 1.429297e+13
1.780644e+04, 1.453171e+13
1.782425e+04, 1.387865e+13
1.784208e+04, 1.484370e+13
1.785992e+04, 1.380735e+13
1.787778e+04, 1.353021e+13
1.789566e+04, 1.451561e+13
1.791355e+04, 1.333532e+13
1.793146e+04, 1.392489e+13
1.794940e+04, 1.372908e+13
1.796735e+04, 1.336943e+13
1.798531e+04, 1.420534e+13
1.800330e+04, 1.261666e+13
1.802130e+04, 1.325638e+13
1.803932e+04, 1.357066e+13
1.805736e+04, 1.303207e+13
1.807542e+04, 1.303705e+13
1.809349e+04, 1.360343e+13
1.811159e+04, 1.251379e+13
1.812970e+04, 1.282748e+13
1.814783e+04, 1.362685e+13
1.816598e+04, 1.331610e+13
1.818414e+04, 1.266616e+13
1.820233e+04, 1.246994e+13
1.822053e+04, 1.212816e+13
1.823875e+04, 1.427652e+13
1.825699e+04, 1.219576e+13
1.827525e+04, 1.273959e+13
1.829352e+04, 1.330816e+13
1.831181e+04, 1.270907e+13
1.833013e+04, 1.233406e+13
1.834846e+04, 1.274871e+13
1.836681e+04, 1.275789e+13
1.838517e+04, 1.234761e+13
1.840356e+04, 1.253379e+13
1.842196e+04, 1.218610e+13
1.844038e+04, 1.154287e+13
1.845882e+04, 1.195554e+13
1.847728e+04, 1.071634e+13
1.849576e+04, 1.153372e+13
1.851425e+04, 1.257238e+13
1.853277e+04, 1.146176e+13
1.855130e+04, 1.217983e+13
1.856985e+04, 1.066025e+13
1.858842e+04, 1.049803e+13
1.860701e+04, 1.048024e+13
1.862562e+04, 1.158718e+13
1.864424e+04, 1.105122e+13
1.866289e+04, 1.159899e+13
1.868155e+04, 1.140591e+13
1.870023e+04, 1.207750e+13
1.871893e+04, 1.132782e+13
1.873765e+04, 1.083857e+13
1.875639e+04, 1.155650e+13
1.877515e+04, 1.126404e+13
1.879392e+04, 1.093772e+13
1.881272e+04, 1.135147e+13
1.883153e+04, 1.249620e+13
1.885036e+04, 1.117072e+13
1.886921e+04, 1.179394e+13
1.888808e+04, 1.162855e+13
1.890697e+04, 1.153875e+13
1.892587e+04, 1.061190e+13
1.894480e+04, 1.138638e+13
1.896374e+04, 1.185409e+13
1.898271e+04, 1.126211e+13
1.900169e+04, 1.200995e+13
1.902069e+04, 1.150495e+13
1.903971e+04, 1.158808e+13
1.905875e+04, 1.136302e+13
1.907781e+04, 1.170252e+13
1.909689e+04, 1.155653e+13
1.911599e+04, 1.099901e+13
1.913510e+04, 1.188282e+13
1.915424e+04, 1.164081e+13
1.917339e+04, 1.118856e+13
1.919257e+04, 1.160466e+13
1.921176e+04, 1.129971e+13
1.923097e+04, 1.124268e+13
1.925020e+04, 1.130483e+13
1.926945e+04, 1.113958e+13
1.928872e+04, 1.126819e+13
1.930801e+04, 9.430476e+12
1.932732e+04, 1.067138e+13
1.934664e+04, 1.119872e+13
1.936599e+04, 1.130822e+13
1.938536e+04, 1.084750e+13
1.940474e+04, 1.067303e+13
1.942415e+04, 1.090477e+13
1.944357e+04, 1.011465e+13
1.946301e+04, 9.043729e+12
1.948248e+04, 1.028540e+13
1.950196e+04, 9.873505e+12
1.952146e+04, 1.006383e+13
1.954098e+04, 1.076334e+13
1.956052e+04, 1.036973e+13
1.958009e+04, 1.150348e+13
1.959967e+04, 1.063704e+13
1.961927e+04, 1.089020e+13
1.963888e+04, 1.054407e+13
1.965852e+04, 1.088438e+13
1.967818e+04, 1.083129e+13
1.969786e+04, 1.092783e+13
1.971756e+04, 1.065957e+13
1.973728e+04, 1.004269e+13
1.975701e+04, 9.580431e+12
1.977677e+04, 8.364814e+12
1.979655e+04, 9.260655e+12
1.981634e+04, 9.904289e+12
1.983616e+04, 1.008787e+13
1.985600e+04, 9.442164e+12
1.987585e+04, 9.199498e+12
1.989573e+04, 9.773738e+12
1.991562e+04, 9.422467e+12
1.993554e+04, 1.014684e+13
1.995547e+04, 1.013705e+13
1.997543e+04, 9.686231e+12
1.999541e+04, 9.882653e+12
2.001540e+04, 9.911741e+12
2.003542e+04, 1.033170e+13
2.005545e+04, 1.004138e+13
2.007551e+04, 1.026256e+13
2.009558e+04, 9.579545e+12
2.011568e+04, 9.589119e+12
2.013579e+04, 9.897294e+12
2.015593e+04, 9.892432e+12
2.017609e+04, 9.936707e+12
2.019626e+04, 9.189597e+12
2.021646e+04, 1.031711e+13
2.023667e+04, 9.987066e+12
2.025691e+04, 9.700318e+12
2.027717e+04, 9.621521e+12
2.029744e+04, 9.590794e+12
2.031774e+04, 9.942505e+12
2.033806e+04, 9.773604e+12
2.035840e+04, 9.667444e+12
2.037876e+04, 9.854626e+12
2.039914e+04, 9.636879e+12
2.041953e+04, 9.905458e+12
2.043995e+04, 9.467288e+12
2.046039e+04, 9.587511e+12
2.048085e+04, 9.732308e+12
2.050134e+04, 9.563654e+12
2.052184e+04, 9.909817e+12
2.054236e+04, 9.417531e+12
2.056290e+04, 9.684419e+12
2.058346e+04, 9.975293e+12
2.060405e+04, 9.567638e+12
2.062465e+04, 9.721321e+12
2.064528e+04, 9.242627e+12
2.066592e+04, 9.632161e+12
2.068659e+04, 9.598468e+12
2.070727e+04, 9.891129e+12
2.072798e+04, 9.407492e+12
2.074871e+04, 9.566733e+12
2.076946e+04, 9.595695e+12
2.079023e+04, 9.693343e+12
2.081102e+04, 9.549329e+12
2.083183e+04, 9.581939e+12
2.085266e+04, 9.618413e+12
2.087351e+04, 9.559481e+12
2.089439e+04, 9.373103e+12
2.091528e+04, 9.899332e+12
2.093620e+04, 9.649352e+12
2.095713e+04, 9.533837e+12
2.097809e+04, 9.641949e+12
2.099907e+04, 9.496796e+12
2.102007e+04, 9.702725e+12
2.104109e+04, 9.725357e+12
2.106213e+04, 9.698374e+12
2.108319e+04, 9.414223e+12
2.110427e+04, 9.912162e+12
2.112538e+04, 9.424369e+12
2.114650e+04, 9.803823e+12
2.116765e+04, 9.501551e+12
2.118882e+04, 9.672832e+12
2.121001e+04, 9.706508e+12
2.123122e+04, 9.712740e+12
2.125245e+04, 9.728588e+12
2.127370e+04, 9.607248e+12
2.129497e+04, 9.493577e+12
2.131627e+04, 9.727050e+12
2.133758e+04, 9.727299e+12
2.135892e+04, 9.862988e+12
2.138028e+04, 9.529397e+12
2.140166e+04, 9.600189e+12
2.142306e+04, 9.614296e+12
2.144449e+04, 1.001878e+13
2.146593e+04, 9.904615e+12
2.148740e+04, 9.604603e+12
2.150888e+04, 9.646116e+12
2.153039e+04, 9.625052e+12
2.155192e+04, 9.739820e+12
2.157347e+04, 9.814336e+12
2.159505e+04, 9.704616e+12
2.161664e+04, 9.860706e+12
2.163826e+04, 9.680675e+12
2.165990e+04, 9.771141e+12
2.168156e+04, 9.902764e+12
2.170324e+04, 9.744135e+12
2.172494e+04, 9.704941e+12
2.174667e+04, 9.771782e+12
2.176841e+04, 9.631279e+12
2.179018e+04, 9.587372e+12
2.181197e+04, 9.761689e+12
2.183378e+04, 9.563892e+12
2.185562e+04, 9.720933e+12
2.187747e+04, 9.744246e+12
2.189935e+04, 9.631203e+12
2.192125e+04, 9.688378e+12
2.194317e+04, 9.726172e+12
2.196512e+04, 9.673451e+12
2.198708e+04, 9.763738e+12
2.200907e+04, 9.709892e+12
2.203108e+04, 9.498173e+12
2.205311e+04, 8.930198e+12
2.207516e+04, 9.194373e+12
2.209724e+04, 9.005968e+12
2.211933e+04, 9.668130e+12
2.214145e+04, 9.670422e+12
2.216359e+04, 9.595135e+12
2.218576e+04, 9.625719e+12
2.220794e+04, 9.424694e+12
2.223015e+04, 9.609896e+12
2.225238e+04, 9.835810e+12
2.227463e+04, 9.481755e+12
2.229691e+04, 9.486735e+12
2.231921e+04, 9.678707e+12
2.234152e+04, 9.466493e+12
2.236387e+04, 9.500886e+12
2.238623e+04, 9.568972e+12
2.240862e+04, 9.592334e+12
2.243102e+04, 9.487272e+12
2.245346e+04, 9.566043e+12
2.247591e+04, 9.479743e+12
2.249839e+04, 9.489304e+12
2.252088e+04, 9.533581e+12
2.254340e+04, 9.400662e+12
2.256595e+04, 9.505528e+12
2.258851e+04, 9.382795e+12
2.261110e+04, 9.187562e+12
2.263371e+04, 9.056192e+12
2.265635e+04, 9.003765e+12
2.267900e+04, 9.375957e+12
2.270168e+04, 9.289934e+12
2.272438e+04, 9.280326e+12
2.274711e+04, 9.351967e+12
2.276986e+04, 9.356813e+12
2.279263e+04, 9.159151e+12
2.281542e+04, 9.258216e+12
2.283823e+04, 9.080033e+12
2.286107e+04, 9.315731e+12
2.288393e+04, 9.225268e+12
2.290682e+04, 9.213277e+12
2.292972e+04, 8.373652e+12
2.295265e+04, 7.827571e+12
2.297561e+04, 8.174102e+12
2.299858e+04, 8.536310e+12
2.302158e+04, 8.434543e+12
2.304460e+04, 8.554795e+12
2.306765e+04, 8.344215e+12
2.309071e+04, 8.550344e+12
2.311380e+04, 8.407989e+12
2.313692e+04, 8.480161e+12
2.316006e+04, 8.348603e+12
2.318322e+04, 8.448580e+12
2.320640e+04, 8.410205e+12
2.322961e+04, 7.215860e+12
2.325283e+04, 7.545574e+12
2.327609e+04, 7.890026e+12
2.329936e+04, 7.732661e+12
2.332266e+04, 8.044077e+12
2.334599e+04, 7.565429e+12
2.336933e+04, 7.691102e+12
2.339270e+04, 7.422696e+12
2.341609e+04, 7.918537e+12
2.343951e+04, 7.686267e+12
2.346295e+04, 7.965057e+12
2.348641e+04, 7.866369e+12
2.350990e+04, 7.684101e+12
2.353341e+04, 6.606591e+12
2.355694e+04, 7.308942e+12
2.358050e+04, 7.225721e+12
2.360408e+04, 7.310840e+12
2.362768e+04, 7.320704e+12
2.365131e+04, 7.611785e+12
2.367496e+04, 7.333647e+12
2.369864e+04, 7.413987e+12
2.372234e+04, 7.576891e+12
2.374606e+04, 7.341974e+12
2.376980e+04, 7.440422e+12
2.379357e+04, 7.298992e+12
2.381737e+04, 7.008538e+12
2.384119e+04, 6.510971e+12
2.386503e+04, 6.628752e+12
2.388889e+04, 6.837808e+12
2.391278e+04, 6.783815e+12
2.393669e+04, 7.037339e+12
2.396063e+04, 6.679449e+12
2.398459e+04, 6.801725e+12
2.400858e+04, 6.681712e+12
2.403258e+04, 6.540134e+12
2.405662e+04, 6.621272e+12
2.408067e+04, 6.232973e+12
2.410475e+04, 6.387659e+12
2.412886e+04, 6.251106e+12
2.415299e+04, 6.199857e+12
2.417714e+04, 6.149593e+12
2.420132e+04, 6.268610e+12
2.422552e+04, 5.865966e+12
2.424974e+04, 6.228302e+12
2.427399e+04, 5.795674e+12
2.429827e+04, 6.193248e+12
2.432257e+04, 5.891688e+12
2.434689e+04, 5.809245e+12
2.437124e+04, 5.475615e+12
2.439561e+04, 6.097250e+12
2.442000e+04, 5.699822e+12
2.444442e+04, 5.556160e+12
2.446887e+04, 5.650733e+12
2.449334e+04, 5.521057e+12
2.451783e+04, 5.455133e+12
2.454235e+04, 5.019348e+12
2.456689e+04, 5.744474e+12
2.459146e+04, 5.532922e+12
2.461605e+04, 5.057779e+12
2.464066e+04, 5.620532e+12
2.466530e+04, 5.208227e+12
2.468997e+04, 5.174085e+12
2.471466e+04, 5.249227e+12
2.473937e+04, 4.825222e+12
2.476411e+04, 5.200254e+12
2.478888e+04, 5.086788e+12
2.481367e+04, 4.718359e+12
2.483848e+04, 5.372394e+12
2.486332e+04, 4.970406e+12
2.488818e+04, 4.780262e+12
2.491307e+04, 4.621881e+12
2.493798e+04, 4.979334e+12
2.496292e+04, 5.061803e+12
2.498788e+04, 4.625601e+12
2.501287e+04, 4.887725e+12
2.503788e+04, 4.545416e+12
2.506292e+04, 4.382585e+12
2.508799e+04, 4.945335e+12
2.511307e+04, 4.601320e+12
2.513819e+04, 4.498871e+12
2.516332e+04, 4.590002e+12
2.518849e+04, 4.659532e+12
2.521368e+04, 4.641088e+12
2.523889e+04, 4.468055e+12
2.526413e+04, 4.558973e+12
2.528939e+04, 4.391827e+12
2.531468e+04, 4.786743e+12
2.534000e+04, 4.461483e+12
2.536534e+04, 4.179386e+12
2.539070e+04, 4.412667e+12
2.541609e+04, 4.399537e+12
2.544151e+04, 4.283960e+12
2.546695e+04, 4.512667e+12
2.549242e+04, 4.223475e+12
2.551791e+04, 4.471338e+12
2.554343e+04, 4.410967e+12
2.556897e+04, 4.330855e+12
2.559454e+04, 4.399169e+12
2.562014e+04, 4.078477e+12
2.564576e+04, 4.379037e+12
2.567140e+04, 4.248304e+12
2.569707e+04, 4.230126e+12
2.572277e+04, 4.631690e+12
2.574849e+04, 4.107556e+12
2.577424e+04, 3.912658e+12
2.580002e+04, 4.500349e+12
2.582582e+04, 4.141405e+12
2.585164e+04, 4.439102e+12
2.587749e+04, 4.222831e+12
2.590337e+04, 4.203299e+12
2.592927e+04, 4.343227e+12
2.595520e+04, 4.109514e+12
2.598116e+04, 4.067427e+12
2.600714e+04, 4.339953e+12
2.603315e+04, 4.365358e+12
2.605918e+04, 4.379515e+12
2.608524e+04, 3.952765e+12
2.611132e+04, 4.604857e+12
2.613744e+04, 4.238816e+12
2.616357e+04, 4.345035e+12
2.618974e+04, 4.059708e+12
2.621593e+04, 4.211936e+12
2.624214e+04, 4.312647e+12
2.626838e+04, 4.160821e+12
2.629465e+04, 4.214931e+12
2.632095e+04, 4.280164e+12
2.634727e+04, 4.029063e+12
2.637362e+04, 4.330292e+12
2.639999e+04, 4.135446e+12
2.642639e+04, 4.185802e+12
2.645282e+04, 4.076053e+12
2.647927e+04, 4.178532e+12
2.650575e+04, 4.257069e+12
2.653225e+04, 4.313854e+12
2.655879e+04, 4.185992e+12
2.658534e+04, 4.485564e+12
2.661193e+04, 4.297097e+12
2.663854e+04, 4.174164e+12
2.666518e+04, 4.172354e+12
2.669185e+04, 4.090684e+12
2.671854e+04, 4.239570e+12
2.674526e+04, 4.176574e+12
2.677200e+04, 3.716200e+12
2.679877e+04, 4.231417e+12
2.682557e+04, 4.060052e+12
2.685240e+04, 3.834863e+12
2.687925e+04, 4.140658e+12
2.690613e+04, 4.203126e+12
2.693303e+04, 3.702447e+12
2.695997e+04, 3.671217e+12
2.698693e+04, 3.993227e+12
2.701391e+04, 4.037249e+12
2.704093e+04, 3.706712e+12
2.706797e+04, 3.861986e+12
2.709504e+04, 3.857425e+12
2.712213e+04, 3.525831e+12
2.714925e+04, 3.833507e+12
2.717640e+04, 3.691981e+12
2.720358e+04, 3.743718e+12
2.723078e+04, 3.618839e+12
2.725801e+04, 3.627020e+12
2.728527e+04, 3.417630e+12
2.731256e+04, 3.872902e+12
2.733987e+04, 3.845735e+12
2.736721e+04, 3.334778e+12
2.739458e+04, 3.317726e+12
2.742197e+04, 3.696778e+12
2.744939e+04, 3.591967e+12
2.747684e+04, 3.636478e+12
2.750432e+04, 3.452986e+12
2.753182e+04, 3.527749e+12
2.755936e+04, 3.470777e+12
2.758692e+04, 3.577634e+12
2.761450e+04, 3.583988e+12
2.764212e+04, 3.494454e+12
2.766976e+04, 3.203362e+12
2.769743e+04, 3.367344e+12
2.772513e+04, 3.466222e+12
2.775285e+04, 3.644007e+12
2.778060e+04, 3.363493e+12
2.780839e+04, 3.411131e+12
2.783619e+04, 3.502866e+12
2.786403e+04, 3.135090e+12
2.789189e+04, 3.268067e+12
2.791979e+04, 3.349619e+12
2.794771e+04, 3.563943e+12
2.797565e+04, 3.387798e+12
2.800363e+04, 3.361068e+12
2.803163e+04, 3.057534e+12
2.805966e+04, 3.106860e+12
2.808772e+04, 3.385529e+12
2.811581e+04, 3.472201e+12
2.814393e+04, 3.179633e+12
2.817207e+04, 3.191644e+12
2.820024e+04, 2.897045e+12
2.822844e+04, 3.236033e+12
2.825667e+04, 3.229679e+12
2.828493e+04, 3.304462e+12
2.831321e+04, 3.334818e+12
2.834153e+04, 3.130589e+12
2.836987e+04, 2.947943e+12
2.839824e+04, 3.232688e+12
2.842664e+04, 3.165547e+12
2.845506e+04, 3.194448e+12
2.848352e+04, 3.199166e+12
2.851200e+04, 3.093186e+12
2.854051e+04, 2.836311e+12
2.856905e+04, 2.979217e+12
2.859762e+04, 3.417741e+12
2.862622e+04, 3.168190e+12
2.865485e+04, 3.108742e+12
2.868350e+04, 3.034688e+12
2.871219e+04, 2.939929e+12
2.874090e+04, 2.862711e+12
2.876964e+04, 3.272480e+12
2.879841e+04, 3.156396e+12
2.882721e+04, 3.136714e+12
2.885603e+04, 2.962807e+12
2.888489e+04, 2.917073e+12
2.891377e+04, 2.877916e+12
2.894269e+04, 3.268674e+12
2.897163e+04, 3.217381e+12
2.900060e+04, 2.796718e+12
2.902960e+04, 2.956776e+12
2.905863e+04, 3.046362e+12
2.908769e+04, 2.531947e+12
2.911678e+04, 3.038646e+12
2.914590e+04, 3.081360e+12
2.917504e+04, 2.973394e+12
2.920422e+04, 2.820990e+12
2.923342e+04, 2.779521e+12
2.926265e+04, 2.917086e+12
2.929192e+04, 2.639142e+12
2.932121e+04, 3.058743e+12
2.935053e+04, 2.972243e+12
2.937988e+04, 2.954164e+12
2.940926e+04, 2.713322e+12
2.943867e+04, 2.742565e+12
2.946811e+04, 2.752931e+12
2.949758e+04, 2.752884e+12
2.952707e+04, 2.890092e+12
2.955660e+04, 2.740510e+12
2.958616e+04, 2.917849e+12
2.961574e+04, 2.768599e+12
2.964536e+04, 2.816907e+12
2.967501e+04, 2.582280e+12
2.970468e+04, 2.761543e+12
2.973439e+04, 2.806342e+12
2.976412e+04, 2.898995e+12
2.979388e+04, 2.825328e+12
2.982368e+04, 2.701071e+12
2.985350e+04, 2.773617e+12
2.988335e+04, 2.449574e+12
2.991324e+04, 2.750585e+12
2.994315e+04, 2.850257e+12
2.997309e+04, 2.767796e+12
3.000307e+04, 2.799897e+12
3.003307e+04, 2.648984e+12
3.006310e+04, 2.599427e+12
3.009317e+04, 2.393327e+12
3.012326e+04, 2.658662e+12
3.015338e+04, 2.924118e+12
3.018354e+04, 2.801513e+12
3.021372e+04, 2.594016e+12
3.024393e+04, 2.644014e+12
3.027418e+04, 2.626194e+12
3.030445e+04, 2.523072e+12
3.033476e+04, 2.751456e+12
3.036509e+04, 2.696506e+12
3.039546e+04, 2.719913e+12
3.042585e+04, 2.614730e+12
3.045628e+04, 2.503214e+12
3.048673e+04, 2.459827e+12
3.051722e+04, 2.452119e+12
3.054774e+04, 2.830122e+12
3.057829e+04, 2.637697e+12
3.060886e+04, 2.659726e+12
3.063947e+04, 2.634902e+12
3.067011e+04, 2.631879e+12
3.070078e+04, 2.447053e+12
3.073148e+04, 2.421986e+12
3.076221e+04, 2.582295e+12
3.079298e+04, 2.761187e+12
3.082377e+04, 2.568307e+12
3.085459e+04, 2.568778e+12
3.088545e+04, 2.469395e+12
3.091633e+04, 2.489750e+12
3.094725e+04, 2.466933e+12
3.097820e+04, 2.487974e+12
3.100918e+04, 2.711211e+12
3.104018e+04, 2.618463e+12
3.107122e+04, 2.520136e+12
3.110230e+04, 2.489291e+12
3.113340e+04, 2.420462e+12
3.116453e+04, 2.548243e+12
3.119570e+04, 2.496680e+12
3.122689e+04, 2.562822e+12
3.125812e+04, 2.630674e+12
3.128938e+04, 2.402253e+12
3.132067e+04, 2.342205e+12
3.135199e+04, 2.501672e+12
3.138334e+04, 2.512052e+12
3.141472e+04, 2.553879e+12
3.144614e+04, 2.418261e+12
3.147758e+04, 2.517488e+12
3.150906e+04, 2.540512e+12
3.154057e+04, 2.400384e+12
3.157211e+04, 2.338787e+12
3.160368e+04, 2.520808e+12
3.163529e+04, 2.569577e+12
3.166692e+04, 2.395253e+12
3.169859e+04, 2.483187e+12
3.173029e+04, 2.430438e+12
3.176202e+04, 2.407576e+12
3.179378e+04, 2.325307e+12
3.182557e+04, 2.496197e+12
3.185740e+04, 2.424192e+12
3.188926e+04, 2.407669e+12
3.192115e+04, 2.491664e+12
3.195307e+04, 2.384358e+12
3.198502e+04, 2.375407e+12
3.201700e+04, 2.295695e+12
3.204902e+04, 2.395029e+12
3.208107e+04, 2.523699e+12
3.211315e+04, 2.448511e+12
3.214526e+04, 2.457993e+12
3.217741e+04, 2.351641e+12
3.220959e+04, 2.403815e+12
3.224180e+04, 2.377329e+12
3.227404e+04, 2.304894e+12
3.230631e+04, 2.477223e+12
3.233862e+04, 2.422596e+12
3.237096e+04, 2.376219e+12
3.240333e+04, 2.349411e+12
3.243573e+04, 2.309312e+12
3.246817e+04, 2.357843e+12
3.250064e+04, 2.359398e+12
3.253314e+04, 2.374551e+12
3.256567e+04, 2.456654e+12
3.259824e+04, 2.453507e+12
3.263083e+04, 2.417876e+12
3.266346e+04, 2.358566e+12
3.269613e+04, 2.300668e+12
3.272882e+04, 2.408007e+12
3.276155e+04, 2.311409e+12
3.279431e+04, 2.311095e+12
3.282711e+04, 2.333397e+12
3.285994e+04, 2.307455e+12
3.289280e+04, 2.358682e+12
3.292569e+04, 2.291328e+12
3.295861e+04, 2.310406e+12
3.299157e+04, 2.312203e+12
3.302456e+04, 2.385857e+12
3.305759e+04, 2.352500e+12
3.309065e+04, 2.318675e+12
3.312374e+04, 2.338652e+12
3.315686e+04, 2.264416e+12
3.319002e+04, 2.287135e+12
3.322321e+04, 2.333940e+12
3.325643e+04, 2.326531e+12
3.328969e+04, 2.415082e+12
3.332298e+04, 2.369373e+12
3.335630e+04, 2.303832e+12
3.338966e+04, 2.185823e+12
3.342305e+04, 2.295547e+12
3.345647e+04, 2.284220e+12
3.348993e+04, 2.290815e+12
3.352342e+04, 2.337328e+12
3.355694e+04, 2.211157e+12
3.359050e+04, 2.298090e+12
3.362409e+04, 2.279926e+12
3.365771e+04, 2.297619e+12
3.369137e+04, 2.300261e+12
3.372506e+04, 2.266298e+12
3.375878e+04, 2.242809e+12
3.379254e+04, 2.240441e+12
3.382634e+04, 2.271710e+12
3.386016e+04, 2.271561e+12
3.389402e+04, 2.300159e+12
3.392792e+04, 2.238851e+12
3.396184e+04, 2.176379e+12
3.399581e+04, 2.224201e+12
3.402980e+04, 2.228511e+12
3.406383e+04, 2.272441e+12
3.409790e+04, 2.197438e+12
3.413199e+04, 2.202276e+12
3.416613e+04, 2.187580e+12
3.420029e+04, 2.204846e+12
3.423449e+04, 2.250761e+12
3.426873e+04, 2.244925e+12
3.430300e+04, 2.225315e+12
3.433730e+04, 2.241787e+12
3.437164e+04, 2.224358e+12
3.440601e+04, 2.219456e+12
3.444041e+04, 2.134578e+12
3.447485e+04, 2.200063e+12
3.450933e+04, 2.211981e+12
3.454384e+04, 2.189863e+12
3.457838e+04, 2.090070e+12
3.461296e+04, 2.158397e+12
3.464757e+04, 2.192313e+12
3.468222e+04, 2.239970e+12
3.471690e+04, 2.230331e+12
3.475162e+04, 2.189974e+12
3.478637e+04, 2.203845e+12
3.482116e+04, 2.117990e+12
3.485598e+04, 2.154069e+12
3.489083e+04, 2.156920e+12
3.492573e+04, 2.088213e+12
3.496065e+04, 2.212385e+12
3.499561e+04, 2.098964e+12
3.503061e+04, 2.198214e+12
3.506564e+04, 2.164689e+12
3.510070e+04, 2.126827e+12
3.513580e+04, 2.172031e+12
3.517094e+04, 2.111299e+12
3.520611e+04, 1.997538e+12
3.524132e+04, 2.096731e+12
3.527656e+04, 2.074650e+12
3.531184e+04, 2.179928e+12
3.534715e+04, 2.148471e+12
3.538249e+04, 2.064042e+12
3.541788e+04, 2.144451e+12
3.545329e+04, 2.046042e+12
3.548875e+04, 2.136408e+12
3.552424e+04, 2.066007e+12
3.555976e+04, 2.087302e+12
3.559532e+04, 2.082727e+12
3.563092e+04, 2.092907e+12
3.566655e+04, 2.107895e+12
3.570221e+04, 2.012473e+12
3.573792e+04, 2.042227e+12
3.577365e+04, 2.019649e+12
3.580943e+04, 2.094562e+12
3.584524e+04, 2.060544e+12
3.588108e+04, 2.021716e+12
3.591696e+04, 2.039193e+12
3.595288e+04, 2.070786e+12
3.598883e+04, 2.017368e+12
3.602482e+04, 1.982060e+12
3.606085e+04, 2.081790e+12
3.609691e+04, 2.063358e+12
3.613300e+04, 2.019673e+12
3.616914e+04, 2.006499e+12
3.620531e+04, 2.022845e+12
3.624151e+04, 1.995745e+12
3.627775e+04, 2.056844e+12
3.631403e+04, 2.024001e+12
3.635035e+04, 1.920453e+12
3.638670e+04, 1.947087e+12
3.642308e+04, 2.018321e+12
3.645951e+04, 2.025626e+12
3.649596e+04, 1.979219e+12
3.653246e+04, 1.951681e+12
3.656899e+04, 1.954011e+12
3.660556e+04, 1.902568e+12
3.664217e+04, 1.919342e+12
3.667881e+04, 1.997962e+12
3.671549e+04, 1.983749e+12
3.675220e+04, 1.945260e+12
3.678896e+04, 1.909108e+12
3.682575e+04, 1.972358e+12
3.686257e+04, 1.966737e+12
3.689943e+04, 1.938904e+12
3.693633e+04, 1.926971e+12
3.697327e+04, 1.925228e+12
3.701024e+04, 1.880267e+12
3.704725e+04, 1.927943e+12
3.708430e+04, 1.837804e+12
3.712138e+04, 1.962975e+12
3.715851e+04, 1.909309e+12
3.719566e+04, 1.915276e+12
3.723286e+04, 1.920893e+12
3.727009e+04, 1.929282e+12
3.730736e+04, 1.921840e+12
3.734467e+04, 1.783512e+12
3.738202e+04, 1.850699e+12
3.741940e+04, 1.874975e+12
3.745682e+04, 1.884757e+12
3.749427e+04, 1.916466e+12
3.753177e+04, 1.910586e+12
3.756930e+04, 1.880325e+12
3.760687e+04, 1.891586e+12
3.764448e+04, 1.840718e+12
3.768212e+04, 1.869317e+12
3.771980e+04, 1.774059e+12
3.775752e+04, 1.865116e+12
3.779528e+04, 1.854463e+12
3.783307e+04, 1.856778e+12
3.787091e+04, 1.860477e+12
3.790878e+04, 1.853407e+12
3.794669e+04, 1.855053e+12
3.798463e+04, 1.842538e+12
3.802262e+04, 1.866303e+12
3.806064e+04, 1.784293e+12
3.809870e+04, 1.750128e+12
3.813680e+04, 1.792629e+12
3.817494e+04, 1.829872e+12
3.821311e+04, 1.820531e+12
3.825133e+04, 1.804368e+12
3.828958e+04, 1.777855e+12
3.832787e+04, 1.788906e+12
3.836619e+04, 1.761041e+12
3.840456e+04, 1.764514e+12
3.844297e+04, 1.801889e+12
3.848141e+04, 1.703826e+12
3.851989e+04, 1.736364e+12
3.855841e+04, 1.773591e+12
3.859697e+04, 1.804126e+12
3.863556e+04, 1.760317e+12
3.867420e+04, 1.735492e+12
3.871287e+04, 1.749782e+12
3.875159e+04, 1.737818e+12
3.879034e+04, 1.728538e+12
3.882913e+04, 1.771846e+12
3.886796e+04, 1.693984e+12
3.890683e+04, 1.679296e+12
3.894573e+04, 1.686726e+12
3.898468e+04, 1.691521e+12
3.902366e+04, 1.726627e+12
3.906269e+04, 1.710838e+12
3.910175e+04, 1.673340e+12
3.914085e+04, 1.647355e+12
3.917999e+04, 1.699096e+12
3.921917e+04, 1.687916e+12
3.925839e+04, 1.685349e+12
3.929765e+04, 1.653107e+12
3.933695e+04, 1.641507e+12
3.937628e+04, 1.660998e+12
3.941566e+04, 1.650845e+12
3.945508e+04, 1.654545e+12
3.949453e+04, 1.644907e+12
3.953403e+04, 1.626082e+12
3.957356e+04, 1.623483e+12
3.961313e+04, 1.641691e+12
3.965275e+04, 1.594612e+12
3.969240e+04, 1.603280e+12
3.973209e+04, 1.581834e+12
3.977182e+04, 1.572668e+12
3.981160e+04, 1.534095e+12
3.985141e+04, 1.552190e+12
3.989126e+04, 1.560910e+12
3.993115e+04, 1.559981e+12
3.997108e+04, 1.555634e+12
4.001105e+04, 1.539684e+12
4.005106e+04, 1.523082e+12
4.009111e+04, 1.518762e+12
4.013121e+04, 1.522783e+12
4.017134e+04, 1.488864e+12
4.021151e+04, 1.465366e+12
4.025172e+04, 1.498090e+12
4.029197e+04, 1.482482e+12
4.033226e+04, 1.498613e+12
4.037260e+04, 1.508233e+12
4.041297e+04, 1.444043e+12
4.045338e+04, 1.399423e+12
4.049383e+04, 1.420519e+12
4.053433e+04, 1.452885e+12
4.057486e+04, 1.450764e+12
4.061544e+04, 1.386210e+12
4.065605e+04, 1.431484e+12
4.069671e+04, 1.418231e+12
4.073741e+04, 1.389176e+12
4.077814e+04, 1.377829e+12
4.081892e+04, 1.374784e+12
4.085974e+04, 1.326396e+12
4.090060e+04, 1.343917e+12
4.094150e+04, 1.363934e+12
4.098244e+04, 1.356000e+12
4.102342e+04, 1.367662e+12
4.106445e+04, 1.385275e+12
4.110551e+04, 1.315516e+12
4.114662e+04, 1.344087e+12
4.118776e+04, 1.314715e+12
4.122895e+04, 1.324166e+12
4.127018e+04, 1.325681e+12
4.131145e+04, 1.277090e+12
4.135276e+04, 1.348877e+12
4.139412e+04, 1.282350e+12
4.143551e+04, 1.310000e+12
4.147695e+04, 1.319431e+12
4.151842e+04, 1.327443e+12
4.155994e+04, 1.268757e+12
4.160150e+04, 1.258082e+12
4.164310e+04, 1.246267e+12
4.168475e+04, 1.235779e+12
4.172643e+04, 1.248427e+12
4.176816e+04, 1.266396e+12
4.180992e+04, 1.276089e+12
4.185173e+04, 1.212585e+12
4.189359e+04, 1.256076e+12
4.193548e+04, 1.258007e+12
4.197742e+04, 1.235551e+12
4.201939e+04, 1.246642e+12
4.206141e+04, 1.230923e+12
4.210347e+04, 1.216734e+12
4.214558e+04, 1.176684e+12
4.218772e+04, 1.203172e+12
4.222991e+04, 1.201223e+12
4.227214e+04, 1.222873e+12
4.231441e+04, 1.220021e+12
4.235673e+04, 1.224713e+12
4.239908e+04, 1.193302e+12
4.244148e+04, 1.178479e+12
4.248392e+04, 1.169728e+12
4.252641e+04, 1.130258e+12
4.256893e+04, 1.169520e+12
4.261150e+04, 1.158147e+12
4.265411e+04, 1.154732e+12
4.269677e+04, 1.154076e+12
4.273947e+04, 1.125689e+12
4.278221e+04, 1.181266e+12
4.282499e+04, 1.137610e+12
4.286781e+04, 1.167822e+12
4.291068e+04, 1.137932e+12
4.295359e+04, 1.060630e+12
4.299654e+04, 1.095241e+12
4.303954e+04, 1.059574e+12
4.308258e+04, 1.080358e+12
4.312566e+04, 1.088145e+12
4.316879e+04, 1.074054e+12
4.321196e+04, 1.088324e+12
4.325517e+04, 1.064324e+12
4.329842e+04, 1.061157e+12
4.334172e+04, 1.077881e+12
4.338506e+04, 1.031932e+12
4.342845e+04, 1.039365e+12
4.347188e+04, 1.051117e+12
4.351535e+04, 1.000715e+12
4.355887e+04, 9.976917e+11
4.360242e+04, 1.031677e+12
4.364603e+04, 1.018672e+12
4.368967e+04, 9.799380e+11
4.373336e+04, 9.981432e+11
4.377710e+04, 9.862334e+11
4.382087e+04, 9.808887e+11
4.386469e+04, 9.860455e+11
4.390856e+04, 1.023761e+12
4.395247e+04, 9.640388e+11
4.399642e+04, 9.692190e+11
4.404042e+04, 9.536138e+11
4.408446e+04, 9.445072e+11
4.412854e+04, 9.460918e+11
4.417267e+04, 9.395578e+11
4.421684e+04, 9.344983e+11
4.426106e+04, 9.231437e+11
4.430532e+04, 9.249179e+11
4.434963e+04, 8.795323e+11
4.439398e+04, 8.933801e+11
4.443837e+04, 9.334848e+11
4.448281e+04, 9.187282e+11
4.452729e+04, 9.381668e+11
4.457182e+04, 8.881240e+11
4.461639e+04, 9.158084e+11
4.466101e+04, 8.648581e+11
4.470567e+04, 8.743780e+11
4.475037e+04, 9.223785e+11
4.479512e+04, 8.488645e+11
4.483992e+04, 9.002949e+11
4.488476e+04, 8.780402e+11
4.492964e+04, 8.744768e+11
4.497457e+04, 8.743178e+11
4.501955e+04, 8.700030e+11
4.506457e+04, 8.376060e+11
4.510963e+04, 8.597427e+11
4.515474e+04, 8.759165e+11
4.519990e+04, 8.253421e+11
4.524510e+04, 8.589195e+11
4.529034e+04, 8.551249e+11
4.533563e+04, 8.063435e+11
4.538097e+04, 8.459157e+11
4.542635e+04, 8.486176e+11
4.547177e+04, 8.174892e+11
4.551725e+04, 8.048267e+11
4.556276e+04, 8.412709e+11
4.560833e+04, 8.210438e+11
4.565393e+04, 8.022189e+11
4.569959e+04, 8.074449e+11
4.574529e+04, 7.993571e+11
4.579103e+04, 8.176121e+11
4.583682e+04, 8.085651e+11
4.588266e+04, 7.758631e+11
4.592854e+04, 8.159880e+11
4.597447e+04, 7.846419e+11
4.602045e+04, 7.926280e+11
4.606647e+04, 8.085330e+11
4.611253e+04, 8.061215e+11
4.615865e+04, 7.385654e+11
4.620480e+04, 8.075771e+11
4.625101e+04, 7.382155e+11
4.629726e+04, 8.119196e+11
4.634356e+04, 7.877789e+11
4.638990e+04, 7.503201e+11
4.643629e+04, 7.806699e+11
4.648273e+04, 7.670801e+11
4.652921e+04, 7.583730e+11
4.657574e+04, 7.842706e+11
4.662231e+04, 7.514635e+11
4.666894e+04, 7.564015e+11
4.671561e+04, 7.615417e+11
4.676232e+04, 7.656238e+11
4.680908e+04, 7.268539e+11
4.685589e+04, 7.684430e+11
4.690275e+04, 7.295127e+11
4.694965e+04, 7.785646e+11
4.699660e+04, 7.341498e+11
4.704360e+04, 7.523770e+11
4.709064e+04, 7.147028e+11
4.713773e+04, 7.508190e+11
4.718487e+04, 7.112334e+11
4.723205e+04, 7.590418e+11
4.727929e+04, 7.083704e+11
4.732657e+04, 7.244771e+11
4.737389e+04, 7.222741e+11
4.742127e+04, 7.384740e+11
4.746869e+04, 7.199109e+11
4.751616e+04, 7.172427e+11
4.756367e+04, 7.109026e+11
4.761124e+04, 7.065261e+11
4.765885e+04, 6.836761e+11
4.770651e+04, 7.240528e+11
4.775421e+04, 6.804232e+11
4.780197e+04, 6.920998e+11
4.784977e+04, 6.672681e+11
4.789762e+04, 7.275006e+11
4.794552e+04, 6.569202e+11
4.799346e+04, 7.213935e+11
4.804146e+04, 6.748862e+11
4.808950e+04, 6.954448e+11
4.813759e+04, 6.385061e+11
4.818572e+04, 6.967862e+11
4.823391e+04, 6.892220e+11
4.828214e+04, 7.064306e+11
4.833043e+04, 6.579668e+11
4.837876e+04, 6.731495e+11
4.842713e+04, 6.529692e+11
4.847556e+04, 6.945080e+11
4.852404e+04, 6.507997e+11
4.857256e+04, 6.717175e+11
4.862113e+04, 6.714688e+11
4.866976e+04, 6.545226e+11
4.871842e+04, 6.408568e+11
4.876714e+04, 6.342290e+11
4.881591e+04, 6.836851e+11
4.886473e+04, 6.390803e+11
4.891359e+04, 6.626770e+11
4.896250e+04, 6.070452e+11
4.901147e+04, 6.745937e+11
4.906048e+04, 6.376184e+11
4.910954e+04, 6.384337e+11
4.915865e+04, 6.438398e+11
4.920781e+04, 6.504773e+11
4.925702e+04, 6.100317e+11
4.930627e+04, 6.239745e+11
4.935558e+04, 6.008730e+11
4.940493e+04, 6.519806e+11
4.945434e+04, 6.251473e+11
4.950379e+04, 6.027542e+11
4.955330e+04, 5.963371e+11
4.960285e+04, 6.037077e+11
4.965245e+04, 6.137928e+11
4.970211e+04, 5.720888e+11
4.975181e+04, 6.424562e+11
4.980156e+04, 5.982615e+11
4.985136e+04, 6.298859e+11
4.990121e+04, 5.826036e+11
4.995111e+04, 5.889193e+11
5.000106e+04, 5.766835e+11
5.005107e+04, 6.029357e+11
5.010112e+04, 5.847220e+11
5.015122e+04, 5.815903e+11
5.020137e+04, 5.454845e+11
5.025157e+04, 5.617357e+11
5.030182e+04, 5.659365e+11
5.035212e+04, 5.889096e+11
5.040248e+04, 5.632565e+11
5.045288e+04, 5.502573e+11
5.050333e+04, 6.164402e+11
5.055383e+04, 5.540020e+11
5.060439e+04, 5.579061e+11
5.065499e+04, 5.474803e+11
5.070565e+04, 5.817093e+11
5.075635e+04, 5.689849e+11
5.080711e+04, 5.226345e+11
5.085792e+04, 5.616915e+11
5.090878e+04, 5.423381e+11
5.095968e+04, 5.586381e+11
5.101064e+04, 5.728745e+11
5.106165e+04, 5.311978e+11
5.111272e+04, 5.387617e+11
5.116383e+04, 5.482611e+11
5.121499e+04, 5.353452e+11
5.126621e+04, 5.283833e+11
5.131747e+04, 5.110889e+11
5.136879e+04, 5.602253e+11
5.142016e+04, 5.253693e+11
5.147158e+04, 4.957789e+11
5.152305e+04, 5.640667e+11
5.157457e+04, 5.217302e+11
5.162615e+04, 5.094587e+11
5.167778e+04, 5.088443e+11
5.172945e+04, 5.104165e+11
5.178118e+04, 5.285706e+11
5.183296e+04, 5.186732e+11
5.188480e+04, 5.291243e+11
5.193668e+04, 5.153042e+11
5.198862e+04, 4.880963e+11
5.204061e+04, 5.034853e+11
5.209265e+04, 5.265917e+11
5.214474e+04, 5.126046e+11
5.219688e+04, 5.020453e+11
5.224908e+04, 4.969831e+11
5.230133e+04, 4.979596e+11
5.235363e+04, 5.096249e+11
5.240599e+04, 4.712933e+11
5.245839e+04, 4.957976e+11
5.251085e+04, 4.945629e+11
5.256336e+04, 4.840273e+11
5.261592e+04, 5.231355e+11
5.266854e+04, 4.855440e+11
5.272121e+04, 4.810494e+11
5.277393e+04, 4.675877e+11
5.282670e+04, 4.649719e+11
5.287953e+04, 4.891494e+11
5.293241e+04, 4.719512e+11
5.298534e+04, 4.712732e+11
5.303833e+04, 4.960156e+11
5.309137e+04, 4.549179e+11
5.314446e+04, 4.874131e+11
5.319760e+04, 4.444913e+11
5.325080e+04, 4.751265e+11
5.330405e+04, 4.803892e+11
5.335735e+04, 4.769881e+11
5.341071e+04, 4.577181e+11
5.346412e+04, 4.444850e+11
5.351759e+04, 4.479839e+11
5.357110e+04, 4.747630e+11
5.362468e+04, 4.569384e+11
5.367830e+04, 4.517136e+11
5.373198e+04, 4.661791e+11
5.378571e+04, 4.495835e+11
5.383950e+04, 4.645085e+11
5.389334e+04, 4.366151e+11
5.394723e+04, 4.530113e+11
5.400118e+04, 4.638943e+11
5.405518e+04, 4.371601e+11
5.410923e+04, 4.264353e+11
5.416334e+04, 4.321644e+11
5.421751e+04, 4.271616e+11
5.427172e+04, 4.344189e+11
5.432599e+04, 4.318572e+11
5.438032e+04, 4.264342e+11
5.443470e+04, 4.459461e+11
5.448914e+04, 4.366267e+11
5.454362e+04, 4.238304e+11
5.459817e+04, 4.370416e+11
5.465277e+04, 4.196669e+11
5.470742e+04, 4.272688e+11
5.476213e+04, 4.218880e+11
5.481689e+04, 4.285306e+11
5.487171e+04, 4.261203e+11
5.492658e+04, 4.153490e+11
5.498150e+04, 4.325316e+11
5.503649e+04, 4.277122e+11
5.509152e+04, 4.106657e+11
5.514661e+04, 4.179882e+11
5.520176e+04, 4.112045e+11
5.525696e+04, 3.939746e+11
5.531222e+04, 3.976092e+11
5.536753e+04, 4.256432e+11
5.542290e+04, 4.104431e+11
5.547832e+04, 3.938347e+11
5.553380e+04, 4.106340e+11
5.558933e+04, 4.001169e+11
5.564492e+04, 3.922708e+11
5.570057e+04, 4.034042e+11
5.575627e+04, 4.022533e+11
5.581202e+04, 3.861107e+11
5.586784e+04, 3.916181e+11
5.592370e+04, 4.041936e+11
5.597963e+04, 4.124784e+11
5.603561e+04, 3.922307e+11
5.609164e+04, 3.958055e+11
5.614774e+04, 3.867220e+11
5.620388e+04, 3.809921e+11
5.626009e+04, 3.945991e+11
5.631635e+04, 3.820859e+11
5.637266e+04, 4.017000e+11
5.642904e+04, 3.822740e+11
5.648546e+04, 3.808822e+11
5.654195e+04, 3.721812e+11
5.659849e+04, 3.864652e+11
5.665509e+04, 3.698934e+11
5.671175e+04, 3.964478e+11
5.676846e+04, 3.670156e+11
5.682523e+04, 3.707155e+11
5.688205e+04, 3.748910e+11
5.693893e+04, 3.638721e+11
5.699587e+04, 3.751602e+11
5.705287e+04, 3.896421e+11
5.710992e+04, 3.584799e+11
5.716703e+04, 3.576239e+11
5.722420e+04, 3.632985e+11
5.728142e+04, 3.615947e+11
5.733870e+04, 3.435136e+11
5.739604e+04, 3.632321e+11
5.745344e+04, 3.726082e+11
5.751089e+04, 3.735834e+11
5.756840e+04, 3.667616e+11
5.762597e+04, 3.541753e+11
5.768360e+04, 3.593189e+11
5.774128e+04, 3.644775e+11
5.779902e+04, 3.419798e+11
5.785682e+04, 3.572747e+11
5.791468e+04, 3.607245e+11
5.797259e+04, 3.406331e+11
5.803056e+04, 3.660454e+11
5.808860e+04, 3.648807e+11
5.814668e+04, 3.469028e+11
5.820483e+04, 3.414605e+11
5.826304e+04, 3.526697e+11
5.832130e+04, 3.320770e+11
5.837962e+04, 3.406833e+11
5.843800e+04, 3.418948e+11
5.849644e+04, 3.388453e+11
5.855493e+04, 3.385730e+11
5.861349e+04, 3.553121e+11
5.867210e+04, 3.511502e+11
5.873077e+04, 3.329484e+11
5.878951e+04, 3.389373e+11
5.884829e+04, 3.358923e+11
5.890714e+04, 3.562097e+11
5.896605e+04, 3.297883e+11
5.902502e+04, 3.178311e+11
5.908404e+04, 3.372022e+11
5.914313e+04, 3.405280e+11
5.920227e+04, 3.347136e+11
5.926147e+04, 3.450509e+11
5.932073e+04, 3.316247e+11
5.938005e+04, 3.253502e+11
5.943943e+04, 3.272466e+11
5.949887e+04, 3.205152e+11
5.955837e+04, 3.400564e+11
5.961793e+04, 3.255194e+11
5.967755e+04, 3.119945e+11
5.973723e+04, 3.336951e+11
5.979696e+04, 3.256716e+11
5.985676e+04, 3.212260e+11
5.991662e+04, 3.160101e+11
5.997653e+04, 3.288828e+11
6.003651e+04, 3.254366e+11
6.009655e+04, 3.330785e+11
6.015664e+04, 3.178805e+11
6.021680e+04, 3.130867e+11
6.027702e+04, 3.260217e+11
6.033729e+04, 3.054697e+11
6.039763e+04, 3.062649e+11
6.045803e+04, 3.030380e+11
6.051849e+04, 3.051043e+11
6.057900e+04, 3.136077e+11
6.063958e+04, 3.198603e+11
6.070022e+04, 3.198340e+11
6.076092e+04, 3.114234e+11
6.082168e+04, 3.199078e+11
6.088251e+04, 3.137548e+11
6.094339e+04, 3.174521e+11
6.100433e+04, 2.972156e+11
6.106534e+04, 3.077596e+11
6.112640e+04, 2.897907e+11
6.118753e+04, 2.995296e+11
6.124872e+04, 3.086569e+11
6.130996e+04, 3.187369e+11
6.137127e+04, 3.165073e+11
6.143265e+04, 2.975873e+11
6.149408e+04, 3.049074e+11
6.155557e+04, 3.023040e+11
6.161713e+04, 2.984905e+11
6.167874e+04, 3.018447e+11
6.174042e+04, 2.863105e+11
6.180216e+04, 3.034098e+11
6.186397e+04, 2.925081e+11
6.192583e+04, 2.987032e+11
6.198776e+04, 2.953134e+11
6.204974e+04, 2.959119e+11
6.211179e+04, 3.002965e+11
6.217390e+04, 2.888740e+11
6.223608e+04, 2.965766e+11
6.229831e+04, 3.022048e+11
6.236061e+04, 2.921678e+11
6.242297e+04, 2.781662e+11
6.248540e+04, 2.853160e+11
6.254788e+04, 2.957112e+11
6.261043e+04, 2.811235e+11
6.267304e+04, 2.875863e+11
6.273571e+04, 2.811009e+11
6.279845e+04, 2.797405e+11
6.286125e+04, 2.962520e+11
6.292411e+04, 2.774775e+11
6.298703e+04, 2.777798e+11
6.305002e+04, 2.896683e+11
6.311307e+04, 2.819419e+11
6.317618e+04, 2.732379e+11
6.323936e+04, 2.769826e+11
6.330260e+04, 2.810870e+11
6.336590e+04, 2.727591e+11
6.342927e+04, 2.704897e+11
6.349270e+04, 2.731885e+11
6.355619e+04, 2.590557e+11
6.361975e+04, 2.745055e+11
6.368337e+04, 2.753340e+11
6.374705e+04, 2.690910e+11
6.381080e+04, 2.610203e+11
6.387461e+04, 2.525728e+11
6.393848e+04, 2.696019e+11
6.400242e+04, 2.706406e+11
6.406642e+04, 2.515347e+11
6.413049e+04, 2.477921e+11
6.419462e+04, 2.507396e+11
6.425881e+04, 2.663913e+11
6.432307e+04, 2.471522e+11
6.438740e+04, 2.509483e+11
6.445178e+04, 2.533739e+11
6.451623e+04, 2.392289e+11
6.458075e+04, 2.424837e+11
6.464533e+04, 2.488070e+11
6.470998e+04, 2.191837e+11
6.477469e+04, 2.237386e+11
6.483946e+04, 2.244749e+11
6.490430e+04, 2.385331e+11
6.496921e+04, 2.254151e+11
6.503417e+04, 2.205309e+11
6.509921e+04, 2.400210e+11
6.516431e+04, 2.213035e+11
6.522947e+04, 2.285569e+11
6.529470e+04, 2.196718e+11
6.536000e+04, 2.245473e+11
6.542536e+04, 2.183840e+11
6.549078e+04, 2.192117e+11
6.555627e+04, 2.175415e+11
6.562183e+04, 2.102819e+11
6.568745e+04, 2.081789e+11
6.575314e+04, 2.102021e+11
6.581889e+04, 2.209588e+11
6.588471e+04, 2.146974e+11
6.595059e+04, 1.886016e+11
6.601655e+04, 2.047201e+11
6.608256e+04, 2.159927e+11
6.614864e+04, 2.051633e+11
6.621479e+04, 1.914731e+11
6.628101e+04, 1.960367e+11
6.634729e+04, 1.959520e+11
6.641364e+04, 1.950394e+11
6.648005e+04, 2.081946e+11
6.654653e+04, 1.970681e+11
6.661308e+04, 1.989094e+11
6.667969e+04, 1.981522e+11
6.674637e+04, 2.014789e+11
6.681312e+04, 1.903690e+11
6.687993e+04, 1.872637e+11
6.694681e+04, 1.944282e+11
6.701376e+04, 2.007001e+11
6.708077e+04, 2.016887e+11
6.714785e+04, 1.949466e+11
6.721500e+04, 1.949970e+11
6.728221e+04, 1.917283e+11
6.734949e+04, 1.957703e+11
6.741684e+04, 1.945968e+11
6.748426e+04, 1.857529e+11
6.755175e+04, 1.927746e+11
6.761930e+04, 1.906113e+11
6.768692e+04, 1.844852e+11
6.775460e+04, 1.859715e+11
6.782236e+04, 1.813323e+11
6.789018e+04, 1.835322e+11
6.795807e+04, 1.833416e+11
6.802603e+04, 1.905273e+11
6.809405e+04, 1.845252e+11
6.816215e+04, 1.732513e+11
6.823031e+04, 1.835035e+11
6.829854e+04, 1.799041e+11
6.836684e+04, 1.718940e+11
6.843521e+04, 1.899707e+11
6.850364e+04, 1.835028e+11
6.857215e+04, 1.738757e+11
6.864072e+04, 1.789297e+11
6.870936e+04, 1.761111e+11
6.877807e+04, 1.836785e+11
6.884685e+04, 1.729973e+11
6.891569e+04, 1.785828e+11
6.898461e+04, 1.806762e+11
6.905359e+04, 1.694872e+11
6.912265e+04, 1.783271e+11
6.919177e+04, 1.700129e+11
6.926096e+04, 1.724808e+11
6.933022e+04, 1.772967e+11
6.939955e+04, 1.725289e+11
6.946895e+04, 1.735237e+11
6.953842e+04, 1.707973e+11
6.960796e+04, 1.707802e+11
6.967757e+04, 1.676863e+11
6.974724e+04, 1.725667e+11
6.981699e+04, 1.679253e+11
6.988681e+04, 1.745058e+11
6.995670e+04, 1.770729e+11
7.002665e+04, 1.647627e+11
7.009668e+04, 1.602253e+11
7.016678e+04, 1.664538e+11
7.023694e+04, 1.616747e+11
7.030718e+04, 1.624241e+11
7.037749e+04, 1.741728e+11
7.044786e+04, 1.630749e+11
7.051831e+04, 1.587641e+11
7.058883e+04, 1.682767e+11
7.065942e+04, 1.667307e+11
7.073008e+04, 1.586695e+11
7.080081e+04, 1.600178e+11
7.087161e+04, 1.614700e+11
7.094248e+04, 1.578444e+11
7.101342e+04, 1.599679e+11
7.108444e+04, 1.563263e+11
7.115552e+04, 1.602029e+11
7.122668e+04, 1.547744e+11
7.129790e+04, 1.601931e+11
7.136920e+04, 1.566811e+11
7.144057e+04, 1.557190e+11
7.151201e+04, 1.535794e+11
7.158352e+04, 1.638584e+11
7.165511e+04, 1.620183e+11
7.172676e+04, 1.550552e+11
7.179849e+04, 1.572201e+11
7.187029e+04, 1.571470e+11
7.194216e+04, 1.543221e+11
7.201410e+04, 1.536253e+11
7.208611e+04, 1.515709e+11
7.215820e+04, 1.524040e+11
7.223036e+04, 1.518839e+11
7.230259e+04, 1.519744e+11
7.237489e+04, 1.499578e+11
7.244727e+04, 1.519196e+11
7.251971e+04, 1.529432e+11
7.259223e+04, 1.481836e+11
7.266482e+04, 1.538314e+11
7.273749e+04, 1.441154e+11
7.281023e+04, 1.503941e+11
7.288304e+04, 1.497705e+11
7.295592e+04, 1.433549e+11
7.302888e+04, 1.446343e+11
7.310191e+04, 1.490006e+11
7.317501e+04, 1.493899e+11
7.324818e+04, 1.472500e+11
7.332143e+04, 1.403147e+11
7.339475e+04, 1.413453e+11
7.346815e+04, 1.396615e+11
7.354161e+04, 1.434541e+11
7.361516e+04, 1.407094e+11
7.368877e+04, 1.429302e+11
7.376246e+04, 1.384968e+11
7.383622e+04, 1.412087e+11
7.391006e+04, 1.467178e+11
7.398397e+04, 1.434523e+11
7.405795e+04, 1.415845e+11
7.413201e+04, 1.385917e+11
7.420614e+04, 1.374985e+11
7.428035e+04, 1.370830e+11
7.435463e+04, 1.316017e+11
7.442898e+04, 1.370227e+11
7.450341e+04, 1.414524e+11
7.457792e+04, 1.380897e+11
7.465249e+04, 1.366069e+11
7.472715e+04, 1.370590e+11
7.480187e+04, 1.372602e+11
7.487668e+04, 1.443464e+11
7.495155e+04, 1.304551e+11
7.502650e+04, 1.328884e+11
7.510153e+04, 1.373108e+11
7.517663e+04, 1.335848e+11
7.525181e+04, 1.320287e+11
7.532706e+04, 1.280208e+11
7.540239e+04, 1.301078e+11
7.547779e+04, 1.324625e+11
7.555327e+04, 1.336820e+11
7.562882e+04, 1.366904e+11
7.570445e+04, 1.264848e+11
7.578015e+04, 1.262385e+11
7.585593e+04, 1.239478e+11
7.593179e+04, 1.311792e+11
7.600772e+04, 1.196338e+11
7.608373e+04, 1.233854e+11
7.615981e+04, 1.209906e+11
7.623597e+04, 1.272277e+11
7.631221e+04, 1.201453e+11
7.638852e+04, 1.253495e+11
7.646491e+04, 1.243046e+11
7.654138e+04, 1.241019e+11
7.661792e+04, 1.201777e+11
7.669453e+04, 1.198331e+11
7.677123e+04, 1.225227e+11
7.684800e+04, 1.238522e+11
7.692485e+04, 1.201276e+11
7.700177e+04, 1.219841e+11
7.707877e+04, 1.191485e+11
7.715585e+04, 1.185579e+11
7.723301e+04, 1.188397e+11
7.731024e+04, 1.180748e+11
7.738755e+04, 1.127589e+11
7.746494e+04, 1.130904e+11
7.754241e+04, 1.177367e+11
7.761995e+04, 1.144960e+11
7.769757e+04, 1.129921e+11
7.777527e+04, 1.180053e+11
7.785304e+04, 1.144610e+11
7.793089e+04, 1.150892e+11
7.800882e+04, 1.094875e+11
7.808683e+04, 1.106801e+11
7.816492e+04, 1.131195e+11
7.824308e+04, 1.161978e+11
7.832133e+04, 1.103786e+11
7.839965e+04, 1.152503e+11
7.847805e+04, 1.150010e+11
7.855653e+04, 1.075180e+11
7.863508e+04, 1.087951e+11
7.871372e+04, 1.059003e+11
7.879243e+04, 1.093441e+11
7.887122e+04, 1.050385e+11
7.895010e+04, 1.031453e+11
7.902905e+04, 1.064271e+11
7.910808e+04, 1.060974e+11
7.918718e+04, 1.078078e+11
7.926637e+04, 1.043432e+11
7.934564e+04, 1.087773e+11
7.942498e+04, 1.061173e+11
7.950441e+04, 1.060608e+11
7.958391e+04, 1.037086e+11
7.966350e+04, 1.019881e+11
7.974316e+04, 1.029687e+11
7.982290e+04, 9.926669e+10
7.990273e+04, 1.021283e+11
7.998263e+04, 1.048724e+11
8.006261e+04, 1.020487e+11
8.014267e+04, 1.027452e+11
8.022282e+04, 9.977984e+10
8.030304e+04, 1.059997e+11
8.038334e+04, 9.986195e+10
8.046373e+04, 9.918919e+10
8.054419e+04, 9.994104e+10
8.062473e+04, 1.006999e+11
8.070536e+04, 9.904523e+10
8.078606e+04, 9.777023e+10
8.086685e+04, 1.016829e+11
8.094772e+04, 9.790996e+10
8.102866e+04, 9.496278e+10
8.110969e+04, 9.671697e+10
8.119080e+04, 9.723273e+10
8.127199e+04, 9.593405e+10
8.135326e+04, 9.953281e+10
8.143462e+04, 9.880497e+10
8.151605e+04, 9.655530e+10
8.159757e+04, 9.268299e+10
8.167917e+04, 9.753565e+10
8.176085e+04, 9.714883e+10
8.184261e+04, 9.594043e+10
8.192445e+04, 9.404247e+10
8.200637e+04, 9.131460e+10
8.208838e+04, 9.080423e+10
8.217047e+04, 9.382932e+10
8.225264e+04, 9.301569e+10
8.233489e+04, 9.201998e+10
8.241723e+04, 9.300512e+10
8.249964e+04, 9.437415e+10
8.258214e+04, 9.565341e+10
8.266473e+04, 8.986763e+10
8.274739e+04, 9.195432e+10
8.283014e+04, 8.759219e+10
8.291297e+04, 9.222703e+10
8.299588e+04, 9.098744e+10
8.307888e+04, 9.127215e+10
8.316196e+04, 8.953684e+10
8.324512e+04, 8.676489e+10
8.332836e+04, 8.645440e+10
8.341169e+04, 8.913196e+10
8.349510e+04, 8.727175e+10
8.357860e+04, 8.853040e+10
8.366218e+04, 8.851171e+10
8.374584e+04, 8.416329e+10
8.382958e+04, 8.467925e+10
8.391341e+04, 8.512445e+10
8.399733e+04, 8.829267e+10
8.408132e+04, 8.773312e+10
8.416541e+04, 8.976154e+10
8.424957e+04, 8.507802e+10
8.433382e+04, 8.581152e+10
8.441815e+04, 8.581186e+10
8.450257e+04, 8.471347e+10
8.458708e+04, 8.378066e+10
8.467166e+04, 8.574152e+10
8.475633e+04, 8.571889e+10
8.484109e+04, 8.327685e+10
8.492593e+04, 8.223512e+10
8.501086e+04, 7.992690e+10
8.509587e+04, 8.447812e+10
8.518096e+04, 8.221365e+10
8.526614e+04, 8.534915e+10
8.535141e+04, 8.120856e+10
8.543676e+04, 8.110482e+10
8.552220e+04, 8.160326e+10
8.560772e+04, 7.979684e+10
8.569333e+04, 8.000473e+10
8.577902e+04, 8.207153e+10
8.586480e+04, 8.048189e+10
8.595067e+04, 8.068142e+10
8.603662e+04, 8.165288e+10
8.612265e+04, 8.056717e+10
8.620878e+04, 7.781713e+10
8.629499e+04, 7.878413e+10
8.638128e+04, 8.151588e+10
8.646766e+04, 7.916172e+10
8.655413e+04, 7.814226e+10
8.664068e+04, 8.045422e+10
8.672732e+04, 7.713173e+10
8.681405e+04, 7.499537e+10
8.690087e+04, 7.970564e+10
8.698777e+04, 8.238806e+10
8.707475e+04, 7.596118e+10
8.716183e+04, 7.600811e+10
8.724899e+04, 7.647633e+10
8.733624e+04, 7.425142e+10
8.742358e+04, 7.595713e+10
8.751100e+04, 7.516846e+10
8.759851e+04, 7.200735e+10
8.768611e+04, 7.431607e+10
8.777379e+04, 7.673485e+10
8.786157e+04, 7.410327e+10
8.794943e+04, 7.538090e+10
8.803738e+04, 7.178088e+10
8.812542e+04, 7.377730e+10
8.821354e+04, 7.263780e+10
8.830176e+04, 7.420495e+10
8.839006e+04, 7.264026e+10
8.847845e+04, 7.523938e+10
8.856693e+04, 7.219690e+10
8.865549e+04, 7.278638e+10
8.874415e+04, 7.340878e+10
8.883289e+04, 7.319562e+10
8.892173e+04, 7.152794e+10
8.901065e+04, 7.328323e+10
8.909966e+04, 7.119360e+10
8.918876e+04, 7.084498e+10
8.927795e+04, 7.333189e+10
8.936722e+04, 7.222540e+10
8.945659e+04, 6.870499e+10
8.954605e+04, 7.080766e+10
8.963559e+04, 7.082389e+10
8.972523e+04, 6.919080e+10
8.981496e+04, 6.778736e+10
8.990477e+04, 7.180342e+10
8.999467e+04, 6.962607e+10
9.008467e+04, 7.112328e+10
9.017475e+04, 6.850350e+10
9.026493e+04, 6.938348e+10
9.035519e+04, 6.829078e+10
9.044555e+04, 6.995661e+10
9.053599e+04, 6.987019e+10
9.062653e+04, 6.652722e+10
9.071716e+04, 6.851111e+10
9.080787e+04, 6.946166e+10
9.089868e+04, 6.645308e+10
9.098958e+04, 6.883577e+10
9.108057e+04, 6.636964e+10
9.117165e+04, 6.767325e+10
9.126282e+04, 6.634351e+10
9.135409e+04, 6.616747e+10
9.144544e+04, 6.836852e+10
9.153688e+04, 6.464716e+10
9.162842e+04, 6.727505e+10
9.172005e+04, 6.430674e+10
9.181177e+04, 6.642964e+10
9.190358e+04, 6.591134e+10
9.199549e+04, 6.405249e+10
9.208748e+04, 6.566517e+10
9.217957e+04, 6.580100e+10
9.227175e+04, 6.473458e+10
9.236402e+04, 6.533293e+10
9.245638e+04, 6.360107e+10
9.254884e+04, 6.226111e+10
9.264139e+04, 6.357488e+10
9.273403e+04, 6.329638e+10
9.282676e+04, 6.302732e+10
9.291959e+04, 6.271843e+10
9.301251e+04, 6.230319e+10
9.310552e+04, 6.390702e+10
9.319863e+04, 6.226970e+10
9.329183e+04, 6.182301e+10
9.338512e+04, 6.111204e+10
9.347850e+04, 6.310498e+10
9.357198e+04, 6.259863e+10
9.366556e+04, 6.277852e+10
9.375922e+04, 6.053330e+10
9.385298e+04, 6.148363e+10
9.394683e+04, 6.034893e+10
9.404078e+04, 5.950671e+10
9.413482e+04, 5.980735e+10
9.422896e+04, 6.027433e+10
9.432318e+04, 6.131945e+10
9.441751e+04, 5.723865e+10
9.451192e+04, 6.092251e+10
9.460644e+04, 5.885513e+10
9.470104e+04, 6.065892e+10
9.479574e+04, 5.895944e+10
9.489054e+04, 6.000979e+10
9.498543e+04, 5.767521e+10
9.508042e+04, 5.896617e+10
9.517550e+04, 5.825233e+10
9.527067e+04, 5.869587e+10
9.536594e+04, 5.876503e+10
9.546131e+04, 5.981252e+10
9.555677e+04, 5.840436e+10
9.565233e+04, 5.830367e+10
9.574798e+04, 5.748907e+10
9.584373e+04, 5.662268e+10
9.593957e+04, 5.670353e+10
9.603551e+04, 5.503256e+10
9.613155e+04, 5.677231e+10
9.622768e+04, 5.547345e+10
9.632390e+04, 5.589762e+10
9.642023e+04, 5.527828e+10
9.651665e+04, 5.563411e+10
9.661317e+04, 5.502837e+10
9.670978e+04, 5.571906e+10
9.680649e+04, 5.423717e+10
9.690330e+04, 5.590754e+10
9.700020e+04, 5.433412e+10
9.709720e+04, 5.480228e+10
9.719430e+04, 5.459866e+10
9.729149e+04, 5.472519e+10
9.738878e+04, 5.428372e+10
9.748617e+04, 5.488205e+10
9.758366e+04, 5.398240e+10
9.768124e+04, 5.452109e+10
9.777892e+04, 5.184536e+10
9.787670e+04, 5.387827e+10
9.797458e+04, 5.431076e+10
9.807255e+04, 5.351799e+10
9.817062e+04, 5.198945e+10
9.826879e+04, 5.214930e+10
9.836706e+04, 5.305645e+10
9.846543e+04, 5.253697e+10
9.856390e+04, 5.019320e+10
9.866246e+04, 5.258185e+10
9.876112e+04, 5.363719e+10
9.885988e+04, 4.872228e+10
9.895874e+04, 4.830270e+10
9.905770e+04, 5.096652e+10
9.915676e+04, 5.020725e+10
9.925592e+04, 4.962942e+10
9.935517e+04, 5.104059e+10
9.945453e+04, 5.185258e+10
9.955398e+04, 5.006440e+10
9.965354e+04, 4.988874e+10
9.975319e+04, 5.028042e+10
9.985294e+04, 4.908743e+10
9.995280e+04, 4.911789e+10
1.000527e+05, 4.975636e+10
1.001528e+05, 4.900529e+10
1.002530e+05, 4.964404e+10
1.003532e+05, 4.906489e+10
1.004536e+05, 4.979561e+10
1.005540e+05, 4.853075e+10
1.006546e+05, 4.667575e+10
1.007552e+05, 4.740304e+10
1.008560e+05, 4.635900e+10
1.009568e+05, 4.731276e+10
1.010578e+05, 4.743628e+10
1.011588e+05, 4.680007e+10
1.012600e+05, 4.749219e+10
1.013613e+05, 4.695987e+10
1.014626e+05, 4.679423e+10
1.015641e+05, 4.763227e+10
1.016657e+05, 4.747052e+10
1.017673e+05, 4.598936e+10
1.018691e+05, 4.592186e+10
1.019710e+05, 4.737034e+10
1.020729e+05, 4.597282e+10
1.021750e+05, 4.442028e+10
1.022772e+05, 4.597093e+10
1.023795e+05, 4.474206e+10
1.024818e+05, 4.536012e+10
1.025843e+05, 4.570463e+10
1.026869e+05, 4.474218e+10
1.027896e+05, 4.335854e+10
1.028924e+05, 4.463509e+10
1.029953e+05, 4.496695e+10
1.030983e+05, 4.406379e+10
1.032014e+05, 4.279653e+10
1.033046e+05, 4.301652e+10
1.034079e+05, 4.362231e+10
1.035113e+05, 4.429775e+10
1.036148e+05, 4.227518e+10
1.037184e+05, 4.324116e+10
1.038221e+05, 4.319697e+10
1.039259e+05, 4.354400e+10
1.040299e+05, 4.123714e+10
1.041339e+05, 4.331824e+10
1.042380e+05, 4.079984e+10
1.043423e+05, 4.110709e+10
1.044466e+05, 4.252561e+10
1.045511e+05, 4.150587e+10
1.046556e+05, 4.152924e+10
1.047603e+05, 4.025552e+10
1.048650e+05, 4.120272e+10
1.049699e+05, 4.184171e+10
1.050749e+05, 3.996824e+10
1.051799e+05, 4.109874e+10
1.052851e+05, 4.098616e+10
1.053904e+05, 4.114235e+10
1.054958e+05, 4.032084e+10
1.056013e+05, 3.970851e+10
1.057069e+05, 3.957657e+10
1.058126e+05, 3.964983e+10
1.059184e+05, 3.946115e+10
1.060243e+05, 3.889057e+10
1.061303e+05, 3.761216e+10
1.062365e+05, 4.049998e+10
1.063427e+05, 3.818116e+10
1.064491e+05, 3.976960e+10
1.065555e+05, 3.873612e+10
1.066621e+05, 3.930306e+10
1.067687e+05, 3.885474e+10
1.068755e+05, 3.812048e+10
1.069824e+05, 3.933115e+10
1.070894e+05, 3.640828e+10
1.071964e+05, 3.818347e+10
1.073036e+05, 3.753128e+10
1.074109e+05, 3.722982e+10
1.075184e+05, 3.648028e+10
1.076259e+05, 3.712405e+10
1.077335e+05, 3.742918e+10
1.078412e+05, 3.629040e+10
1.079491e+05, 3.631220e+10
1.080570e+05, 3.785845e+10
1.081651e+05, 3.658269e+10
1.082732e+05, 3.569640e+10
1.083815e+05, 3.790883e+10
1.084899e+05, 3.601531e+10
1.085984e+05, 3.685206e+10
1.087070e+05, 3.613198e+10
1.088157e+05, 3.577663e+10
1.089245e+05, 3.411291e+10
1.090334e+05, 3.466035e+10
1.091425e+05, 3.545988e+10
1.092516e+05, 3.518112e+10
1.093609e+05, 3.398213e+10
1.094702e+05, 3.468215e+10
1.095797e+05, 3.605754e+10
1.096893e+05, 3.367501e+10
1.097990e+05, 3.338704e+10
1.099088e+05, 3.310494e+10
1.100187e+05, 3.460245e+10
1.101287e+05, 3.423009e+10
1.102388e+05, 3.378970e+10
1.103491e+05, 3.433497e+10
1.104594e+05, 3.221594e+10
1.105699e+05, 3.221716e+10
1.106804e+05, 3.337849e+10
1.107911e+05, 3.290944e+10
1.109019e+05, 3.275409e+10
1.110128e+05, 3.369543e+10
1.111238e+05, 3.182962e+10
1.112349e+05, 3.281741e+10
1.113462e+05, 3.206616e+10
1.114575e+05, 3.388770e+10
1.115690e+05, 3.237078e+10
1.116806e+05, 3.221297e+10
1.117922e+05, 3.131428e+10
1.119040e+05, 3.180817e+10
1.120159e+05, 3.058155e+10
1.121279e+05, 3.182397e+10
1.122401e+05, 3.112951e+10
1.123523e+05, 3.144463e+10
1.124647e+05, 3.172757e+10
1.125771e+05, 3.110044e+10
1.126897e+05, 3.091069e+10
1.128024e+05, 3.149010e+10
1.129152e+05, 3.059144e+10
1.130281e+05, 3.019030e+10
1.131411e+05, 2.960804e+10
1.132543e+05, 3.043529e+10
1.133675e+05, 3.014370e+10
1.134809e+05, 3.098218e+10
1.135944e+05, 2.987317e+10
1.137080e+05, 2.940304e+10
1.138217e+05, 2.989856e+10
1.139355e+05, 2.982049e+10
1.140494e+05, 3.020129e+10
1.141635e+05, 3.115163e+10
1.142777e+05, 2.925090e+10
1.143919e+05, 2.836161e+10
1.145063e+05, 2.809529e+10
1.146208e+05, 2.985055e+10
1.147355e+05, 2.857141e+10
1.148502e+05, 2.838655e+10
1.149650e+05, 2.888316e+10
1.150800e+05, 2.885406e+10
1.151951e+05, 2.814734e+10
1.153103e+05, 2.822535e+10
1.154256e+05, 2.758742e+10
1.155410e+05, 2.684738e+10
1.156566e+05, 2.750515e+10
1.157722e+05, 2.751289e+10
1.158880e+05, 2.781501e+10
1.160039e+05, 2.636878e+10
1.161199e+05, 2.726087e+10
1.162360e+05, 2.747408e+10
1.163522e+05, 2.690500e+10
1.164686e+05, 2.735570e+10
1.165851e+05, 2.763576e+10
1.167016e+05, 2.737640e+10
1.168183e+05, 2.682047e+10
1.169352e+05, 2.679986e+10
1.170521e+05, 2.704840e+10
1.171691e+05, 2.602524e+10
1.172863e+05, 2.583625e+10
1.174036e+05, 2.536219e+10
1.175210e+05, 2.567228e+10
1.176385e+05, 2.568879e+10
1.177562e+05, 2.578181e+10
1.178739e+05, 2.612979e+10
1.179918e+05, 2.510839e+10
1.181098e+05, 2.617174e+10
1.182279e+05, 2.564954e+10
1.183461e+05, 2.448660e+10
1.184645e+05, 2.651531e+10
1.185829e+05, 2.414908e+10
1.187015e+05, 2.558935e+10
1.188202e+05, 2.605559e+10
1.189390e+05, 2.532235e+10
1.190580e+05, 2.380067e+10
1.191770e+05, 2.475699e+10
1.192962e+05, 2.453011e+10
1.194155e+05, 2.554218e+10
1.195349e+05, 2.436779e+10
1.196545e+05, 2.367486e+10
1.197741e+05, 2.542376e+10
1.198939e+05, 2.457138e+10
1.200138e+05, 2.385540e+10
1.201338e+05, 2.416000e+10
1.202539e+05, 2.341744e+10
1.203742e+05, 2.470453e+10
1.204946e+05, 2.316387e+10
1.206151e+05, 2.333289e+10
1.207357e+05, 2.475349e+10
1.208564e+05, 2.326497e+10
1.209773e+05, 2.376846e+10
1.210982e+05, 2.385545e+10
1.212193e+05, 2.289365e+10
1.213406e+05, 2.382986e+10
1.214619e+05, 2.222217e+10
1.215834e+05, 2.203095e+10
1.217049e+05, 2.373861e+10
1.218266e+05, 2.341588e+10
1.219485e+05, 2.304031e+10
1.220704e+05, 2.267797e+10
1.221925e+05, 2.246809e+10
1.223147e+05, 2.334092e+10
1.224370e+05, 2.196507e+10
1.225594e+05, 2.231861e+10
1.226820e+05, 2.249381e+10
1.228047e+05, 2.167636e+10
1.229275e+05, 2.208767e+10
1.230504e+05, 2.240778e+10
1.231735e+05, 2.128053e+10
1.232966e+05, 2.192626e+10
1.234199e+05, 2.240693e+10
1.235433e+05, 2.171085e+10
1.236669e+05, 2.122012e+10
1.237906e+05, 2.168861e+10
1.239144e+05, 2.204623e+10
1.240383e+05, 2.084884e+10
1.241623e+05, 2.084192e+10
1.242865e+05, 2.034780e+10
1.244108e+05, 2.048503e+10
1.245352e+05, 2.040553e+10
1.246597e+05, 2.122829e+10
1.247844e+05, 2.064450e+10
1.249091e+05, 2.091680e+10
1.250341e+05, 2.070704e+10
1.251591e+05, 2.049545e+10
1.252842e+05, 1.990154e+10
1.254095e+05, 1.991143e+10
1.255349e+05, 2.012616e+10
1.256605e+05, 2.035510e+10
1.257861e+05, 2.023536e+10
1.259119e+05, 1.982032e+10
1.260378e+05, 1.975436e+10
1.261639e+05, 2.056607e+10
1.262900e+05, 1.997514e+10
1.264163e+05, 1.980099e+10
1.265427e+05, 1.922102e+10
1.266693e+05, 1.879537e+10
1.267960e+05, 1.908528e+10
1.269227e+05, 1.992205e+10
1.270497e+05, 1.963416e+10
1.271767e+05, 1.967989e+10
1.273039e+05, 1.927891e+10
1.274312e+05, 2.015995e+10
1.275586e+05, 1.881109e+10
1.276862e+05, 1.863006e+10
1.278139e+05, 1.849702e+10
1.279417e+05, 1.862952e+10
1.280696e+05, 1.822688e+10
1.281977e+05, 1.860111e+10
1.283259e+05, 1.909061e+10
1.284542e+05, 1.833738e+10
1.285827e+05, 1.864919e+10
1.287113e+05, 1.890494e+10
1.288400e+05, 1.932696e+10
1.289688e+05, 1.847520e+10
1.290978e+05, 1.851015e+10
1.292269e+05, 1.773503e+10
1.293561e+05, 1.770449e+10
1.294855e+05, 1.818947e+10
1.296149e+05, 1.807082e+10
1.297446e+05, 1.782152e+10
1.298743e+05, 1.749128e+10
1.300042e+05, 1.828158e+10
1.301342e+05, 1.782267e+10
1.302643e+05, 1.705134e+10
1.303946e+05, 1.750596e+10
1.305250e+05, 1.732095e+10
1.306555e+05, 1.804616e+10
1.307862e+05, 1.743790e+10
1.309169e+05, 1.694517e+10
1.310479e+05, 1.799311e+10
1.311789e+05, 1.737098e+10
1.313101e+05, 1.749925e+10
1.314414e+05, 1.669651e+10
1.315728e+05, 1.693144e+10
1.317044e+05, 1.690411e+10
1.318361e+05, 1.645924e+10
1.319680e+05, 1.744635e+10
1.320999e+05, 1.579985e+10
1.322320e+05, 1.642156e+10
1.323643e+05, 1.669440e+10
1.324966e+05, 1.684472e+10
1.326291e+05, 1.605147e+10
1.327617e+05, 1.693688e+10
1.328945e+05, 1.601438e+10
1.330274e+05, 1.635998e+10
1.331604e+05, 1.599957e+10
1.332936e+05, 1.609863e+10
1.334269e+05, 1.581351e+10
1.335603e+05, 1.578327e+10
1.336939e+05, 1.638708e+10
1.338276e+05, 1.615936e+10
1.339614e+05, 1.642061e+10
1.340954e+05, 1.634431e+10
1.342294e+05, 1.544420e+10
1.343637e+05, 1.587295e+10
1.344980e+05, 1.519283e+10
1.346325e+05, 1.553869e+10
1.347672e+05, 1.540739e+10
1.349019e+05, 1.518109e+10
1.350368e+05, 1.576989e+10
1.351719e+05, 1.573722e+10
1.353070e+05, 1.502827e+10
1.354424e+05, 1.485860e+10
1.355778e+05, 1.487911e+10
1.357134e+05, 1.464572e+10
1.358491e+05, 1.520375e+10
1.359849e+05, 1.512440e+10
1.361209e+05, 1.497946e+10
1.362570e+05, 1.494837e+10
1.363933e+05, 1.435661e+10
1.365297e+05, 1.440368e+10
1.366662e+05, 1.511838e+10
1.368029e+05, 1.520144e+10
1.369397e+05, 1.420408e+10
1.370766e+05, 1.427350e+10
1.372137e+05, 1.417394e+10
1.373509e+05, 1.478409e+10
1.374883e+05, 1.409979e+10
1.376258e+05, 1.358824e+10
1.377634e+05, 1.395581e+10
1.379012e+05, 1.432657e+10
1.380391e+05, 1.462325e+10
1.381771e+05, 1.420481e+10
1.383153e+05, 1.459425e+10
1.384536e+05, 1.385648e+10
1.385920e+05, 1.368614e+10
1.387306e+05, 1.438055e+10
1.388694e+05, 1.425697e+10
1.390082e+05, 1.396593e+10
1.391472e+05, 1.374295e+10
1.392864e+05, 1.404250e+10
1.394257e+05, 1.383270e+10
1.395651e+05, 1.372661e+10
1.397047e+05, 1.323157e+10
1.398444e+05, 1.382465e+10
1.399842e+05, 1.333527e+10
1.401242e+05, 1.304707e+10
1.402643e+05, 1.359314e+10
1.404046e+05, 1.346431e+10
1.405450e+05, 1.346714e+10
1.406855e+05, 1.279427e+10
1.408262e+05, 1.338863e+10
1.409670e+05, 1.355411e+10
1.411080e+05, 1.314066e+10
1.412491e+05, 1.255193e+10
1.413904e+05, 1.265860e+10
1.415318e+05, 1.259391e+10
1.416733e+05, 1.229891e+10
1.418150e+05, 1.261751e+10
1.419568e+05, 1.250462e+10
1.420987e+05, 1.200540e+10
1.422408e+05, 1.289357e+10
1.423831e+05, 1.271839e+10
1.425255e+05, 1.298261e+10
1.426680e+05, 1.276925e+10
1.428107e+05, 1.267150e+10
1.429535e+05, 1.260586e+10
1.430964e+05, 1.278838e+10
1.432395e+05, 1.180800e+10
1.433828e+05, 1.227383e+10
1.435261e+05, 1.232015e+10
1.436697e+05, 1.219459e+10
1.438133e+05, 1.217203e+10
1.439571e+05, 1.216254e+10
1.441011e+05, 1.201819e+10
1.442452e+05, 1.194614e+10
1.443894e+05, 1.202479e+10
1.445338e+05, 1.172999e+10
1.446784e+05, 1.167479e+10
1.448231e+05, 1.143417e+10
1.449679e+05, 1.125270e+10
1.451128e+05, 1.202935e+10
1.452580e+05, 1.158114e+10
1.454032e+05, 1.166185e+10
1.455486e+05, 1.168790e+10
1.456942e+05, 1.203962e+10
1.458399e+05, 1.152503e+10
1.459857e+05, 1.148690e+10
1.461317e+05, 1.176340e+10
1.462778e+05, 1.089463e+10
1.464241e+05, 1.094994e+10
1.465705e+05, 1.055184e+10
1.467171e+05, 1.094164e+10
1.468638e+05, 1.105039e+10
1.470107e+05, 1.097810e+10
1.471577e+05, 1.066052e+10
1.473048e+05, 1.115869e+10
1.474521e+05, 1.109166e+10
1.475996e+05, 1.136044e+10
1.477472e+05, 1.106050e+10
1.478949e+05, 1.106600e+10
1.480428e+05, 1.138516e+10
1.481909e+05, 1.094403e+10
1.483391e+05, 1.083551e+10
1.484874e+05, 1.076235e+10
1.486359e+05, 1.067564e+10
1.487845e+05, 1.074935e+10
1.489333e+05, 1.042316e+10
1.490823e+05, 1.065412e+10
1.492313e+05, 1.025023e+10
1.493806e+05, 1.073831e+10
1.495299e+05, 1.060234e+10
1.496795e+05, 1.017102e+10
1.498292e+05, 1.008746e+10
1.499790e+05, 1.071463e+10
1.501290e+05, 1.029892e+10
1.502791e+05, 1.060589e+10
1.504294e+05, 9.542631e+09
1.505798e+05, 1.029859e+10
1.507304e+05, 1.070394e+10
1.508811e+05, 1.031327e+10
1.510320e+05, 1.006322e+10
1.511830e+05, 1.001810e+10
1.513342e+05, 9.724100e+09
1.514855e+05, 1.026538e+10
1.516370e+05, 1.007398e+10
1.517887e+05, 9.432677e+09
1.519405e+05, 9.910956e+09
1.520924e+05, 1.022638e+10
1.522445e+05, 9.829098e+09
1.523967e+05, 9.812060e+09
1.525491e+05, 9.455944e+09
1.527017e+05, 9.792941e+09
1.528544e+05, 9.372720e+09
1.530072e+05, 9.550587e+09
1.531602e+05, 9.299699e+09
1.533134e+05, 9.341173e+09
1.534667e+05, 9.113916e+09
1.536202e+05, 9.333757e+09
1.537738e+05, 9.191460e+09
1.539276e+05, 9.109771e+09
1.540815e+05, 9.628449e+09
1.542356e+05, 9.098138e+09
1.543898e+05, 9.175520e+09
1.545442e+05, 8.970761e+09
1.546988e+05, 9.074770e+09
1.548534e+05, 9.061079e+09
1.550083e+05, 9.180473e+09
1.551633e+05, 9.039136e+09
1.553185e+05, 9.034395e+09
1.554738e+05, 9.126045e+09
1.556293e+05, 8.874327e+09
1.557849e+05, 9.028303e+09
1.559407e+05, 9.147421e+09
1.560966e+05, 9.098681e+09
1.562527e+05, 9.103354e+09
1.564090e+05, 8.646583e+09
1.565654e+05, 8.802165e+09
1.567219e+05, 8.818218e+09
1.568787e+05, 8.800757e+09
1.570355e+05, 8.792010e+09
1.571926e+05, 8.591178e+09
1.573498e+05, 8.779448e+09
1.575071e+05, 8.410351e+09
1.576646e+05, 8.459142e+09
1.578223e+05, 8.824871e+09
1.579801e+05, 8.522331e+09
1.581381e+05, 8.251420e+09
1.582962e+05, 8.592126e+09
1.584545e+05, 8.399139e+09
1.586130e+05, 8.135213e+09
1.587716e+05, 8.593236e+09
1.589304e+05, 8.090038e+09
1.590893e+05, 8.322741e+09
1.592484e+05, 7.892363e+09
1.594076e+05, 8.341225e+09
1.595670e+05, 8.052911e+09
1.597266e+05, 7.919645e+09
1.598863e+05, 7.790065e+09
1.600462e+05, 7.889006e+09
1.602063e+05, 7.956165e+09
1.603665e+05, 8.057508e+09
1.605268e+05, 7.852040e+09
1.606874e+05, 8.108131e+09
1.608481e+05, 7.790033e+09
1.610089e+05, 7.807076e+09
1.611699e+05, 7.584566e+09
1.613311e+05, 8.034211e+09
1.614924e+05, 7.729766e+09
1.616539e+05, 7.512014e+09
1.618156e+05, 7.868271e+09
1.619774e+05, 7.712272e+09
1.621394e+05, 7.413305e+09
1.623015e+05, 7.732815e+09
1.624638e+05, 7.814705e+09
1.626263e+05, 7.527338e+09
1.627889e+05, 7.329868e+09
1.629517e+05, 7.675788e+09
1.631146e+05, 7.616854e+09
1.632777e+05, 7.336877e+09
1.634410e+05, 7.772053e+09
1.636045e+05, 7.908732e+09
1.637681e+05, 7.479516e+09
1.639318e+05, 7.102401e+09
1.640958e+05, 7.406101e+09
1.642599e+05, 7.361332e+09
1.644241e+05, 7.439466e+09
1.645885e+05, 7.550163e+09
1.647531e+05, 6.920382e+09
1.649179e+05, 7.284942e+09
1.650828e+05, 7.356819e+09
1.652479e+05, 7.274829e+09
1.654131e+05, 7.210236e+09
1.655785e+05, 6.619268e+09
1.657441e+05, 6.935699e+09
1.659099e+05, 7.037773e+09
1.660758e+05, 6.936274e+09
1.662419e+05, 6.766553e+09
1.664081e+05, 6.826896e+09
1.665745e+05, 6.819645e+09
1.667411e+05, 6.993768e+09
1.669078e+05, 7.118326e+09
1.670747e+05, 6.821848e+09
1.672418e+05, 6.752994e+09
1.674090e+05, 6.889093e+09
1.675765e+05, 6.566606e+09
1.677440e+05, 7.137101e+09
1.679118e+05, 6.735138e+09
1.680797e+05, 6.792356e+09
1.682478e+05, 6.561990e+09
1.684160e+05, 6.395537e+09
1.685844e+05, 6.799090e+09
1.687530e+05, 6.378596e+09
1.689218e+05, 6.508843e+09
1.690907e+05, 6.628599e+09
1.692598e+05, 6.368499e+09
1.694290e+05, 6.724094e+09
1.695985e+05, 6.631975e+09
1.697681e+05, 6.542704e+09
1.699378e+05, 6.415347e+09
1.701078e+05, 6.611733e+09
1.702779e+05, 6.555799e+09
1.704482e+05, 6.577343e+09
1.706186e+05, 6.448587e+09
1.707892e+05, 6.249274e+09
1.709600e+05, 6.372527e+09
1.711310e+05, 6.332554e+09
1.713021e+05, 6.021682e+09
1.714734e+05, 6.118129e+09
1.716449e+05, 6.210110e+09
1.718165e+05, 6.162675e+09
1.719883e+05, 6.061815e+09
1.721603e+05, 6.167546e+09
1.723325e+05, 5.872907e+09
1.725048e+05, 5.900443e+09
1.726773e+05, 5.918650e+09
1.728500e+05, 5.924303e+09
1.730229e+05, 6.136543e+09
1.731959e+05, 6.032736e+09
1.733691e+05, 5.890356e+09
1.735424e+05, 5.887616e+09
1.737160e+05, 5.934160e+09
1.738897e+05, 6.132762e+09
1.740636e+05, 5.740288e+09
1.742377e+05, 6.145709e+09
1.744119e+05, 5.717383e+09
1.745863e+05, 5.755295e+09
1.747609e+05, 5.585977e+09
1.749357e+05, 5.893308e+09
1.751106e+05, 5.809338e+09
1.752857e+05, 5.529929e+09
1.754610e+05, 5.553789e+09
1.756364e+05, 5.763034e+09
1.758121e+05, 5.644379e+09
1.759879e+05, 5.577221e+09
1.761639e+05, 5.655364e+09
1.763400e+05, 5.334510e+09
1.765164e+05, 5.483142e+09
1.766929e+05, 5.541426e+09
1.768696e+05, 5.638305e+09
1.770465e+05, 5.491143e+09
1.772235e+05, 5.428840e+09
1.774007e+05, 5.521404e+09
1.775781e+05, 5.421113e+09
1.777557e+05, 5.327208e+09
1.779335e+05, 5.561512e+09
1.781114e+05, 5.492285e+09
1.782895e+05, 5.368274e+09
1.784678e+05, 5.374779e+09
1.786463e+05, 5.349404e+09
1.788249e+05, 5.484353e+09
1.790037e+05, 5.413517e+09
1.791827e+05, 5.279535e+09
1.793619e+05, 5.096917e+09
1.795413e+05, 5.160139e+09
1.797208e+05, 5.402242e+09
1.799006e+05, 5.659383e+09
1.800805e+05, 5.203412e+09
1.802605e+05, 4.967021e+09
1.804408e+05, 5.220710e+09
1.806212e+05, 5.060085e+09
1.808019e+05, 4.986368e+09
1.809827e+05, 5.042718e+09
1.811636e+05, 5.292826e+09
1.813448e+05, 4.995741e+09
1.815262e+05, 4.915729e+09
1.817077e+05, 4.807533e+09
1.818894e+05, 4.925858e+09
1.820713e+05, 5.115729e+09
1.822533e+05, 4.946928e+09
1.824356e+05, 4.906667e+09
1.826180e+05, 4.886259e+09
1.828007e+05, 4.938094e+09
1.829835e+05, 4.815997e+09
1.831664e+05, 4.884955e+09
1.833496e+05, 4.969637e+09
1.835330e+05, 4.898723e+09
1.837165e+05, 4.773649e+09
1.839002e+05, 4.725382e+09
1.840841e+05, 4.810491e+09
1.842682e+05, 4.615949e+09
1.844525e+05, 4.984425e+09
1.846369e+05, 4.830610e+09
1.848215e+05, 4.910379e+09
1.850064e+05, 4.670125e+09
1.851914e+05, 4.510245e+09
1.853766e+05, 4.604398e+09
1.855619e+05, 4.417888e+09
1.857475e+05, 4.657653e+09
1.859333e+05, 4.398351e+09
1.861192e+05, 4.538282e+09
1.863053e+05, 4.460690e+09
1.864916e+05, 4.545015e+09
1.866781e+05, 4.456667e+09
1.868648e+05, 4.693955e+09
1.870516e+05, 4.486047e+09
1.872387e+05, 4.273664e+09
1.874259e+05, 4.488510e+09
1.876134e+05, 4.280058e+09
1.878010e+05, 4.451205e+09
1.879888e+05, 4.566798e+09
1.881768e+05, 4.390227e+09
1.883649e+05, 4.400316e+09
1.885533e+05, 4.355076e+09
1.887419e+05, 4.347846e+09
1.889306e+05, 4.236863e+09
1.891195e+05, 4.364484e+09
1.893086e+05, 4.257328e+09
1.894980e+05, 4.226564e+09
1.896875e+05, 4.261851e+09
1.898771e+05, 4.320783e+09
1.900670e+05, 4.199224e+09
1.902571e+05, 4.383063e+09
1.904473e+05, 4.208869e+09
1.906378e+05, 4.270413e+09
1.908284e+05, 4.165452e+09
1.910193e+05, 4.369269e+09
1.912103e+05, 4.335954e+09
1.914015e+05, 4.103381e+09
1.915929e+05, 4.289116e+09
1.917845e+05, 3.925366e+09
1.919763e+05, 4.023905e+09
1.921682e+05, 3.843040e+09
1.923604e+05, 3.958841e+09
1.925528e+05, 4.019480e+09
1.927453e+05, 4.067619e+09
1.929381e+05, 3.923044e+09
1.931310e+05, 3.998796e+09
1.933241e+05, 3.967148e+09
1.935175e+05, 3.840509e+09
1.937110e+05, 3.989231e+09
1.939047e+05, 4.094704e+09
1.940986e+05, 3.886217e+09
1.942927e+05, 3.750431e+09
1.944870e+05, 3.881384e+09
1.946815e+05, 3.915133e+09
1.948762e+05, 3.863702e+09
1.950710e+05, 4.019892e+09
1.952661e+05, 3.840368e+09
1.954614e+05, 3.926649e+09
1.956568e+05, 3.684278e+09
1.958525e+05, 3.594616e+09
1.960483e+05, 3.885407e+09
1.962444e+05, 3.576515e+09
1.964406e+05, 3.624658e+09
1.966371e+05, 3.684824e+09
1.968337e+05, 3.748219e+09
1.970305e+05, 3.798434e+09
1.972276e+05, 3.766385e+09
1.974248e+05, 3.621580e+09
1.976222e+05, 3.749147e+09
1.978198e+05, 3.713658e+09
1.980177e+05, 3.564216e+09
1.982157e+05, 3.509933e+09
1.984139e+05, 3.521449e+09
1.986123e+05, 3.624999e+09
1.988109e+05, 3.571982e+09
1.990097e+05, 3.461903e+09
1.992087e+05, 3.650523e+09
1.994080e+05, 3.442553e+09
1.996074e+05, 3.513581e+09
1.998070e+05, 3.691403e+09