wavelength[Angstrom], flux[erg / (cm3 s)]
1.000000e+03, 2.151113e-05
1.001000e+03, 1.243752e-05
1.002001e+03, 5.425932e-06
1.003003e+03, 7.371373e-06
1.004006e+03, 8.961091e-06
1.005010e+03, 9.528895e-06
1.006015e+03, 4.566780e-06
1.007021e+03, 1.090604e-05
1.008028e+03, 7.815474e-06
1.009036e+03, 7.693070e-06
1.010045e+03, 8.828015e-06
1.011055e+03, 1.100782e-05
1.012066e+03, 1.008352e-05
1.013078e+03, 9.041585e-06
1.014091e+03, 6.480902e-06
1.015105e+03, 2.256265e-05
1.016121e+03, 2.073886e-05
1.017137e+03, 9.502181e-06
1.018154e+03, 1.157736e-05
1.019172e+03, 2.426556e-05
1.020191e+03, 3.030854e-05
1.021211e+03, 1.826867e-05
1.022233e+03, 1.490017e-05
1.023255e+03, 1.590925e-05
1.024278e+03, 1.171084e-05
1.025302e+03, 1.022009e-06
1.026328e+03, 2.190949e-06
1.027354e+03, 1.787860e-05
1.028381e+03, 1.698772e-05
1.029410e+03, 2.100044e-05
1.030439e+03, 3.183706e-05
1.031470e+03, 3.157750e-05
1.032501e+03, 8.751229e-05
1.033533e+03, 3.581026e-05
1.034567e+03, 6.565800e-05
1.035602e+03, 4.386100e-05
1.036637e+03, 4.046593e-05
1.037674e+03, 1.327705e-04
1.038712e+03, 7.647516e-05
1.039750e+03, 6.261730e-05
1.040790e+03, 5.673369e-05
1.041831e+03, 1.034386e-04
1.042873e+03, 1.372840e-04
1.043915e+03, 1.002465e-04
1.044959e+03, 1.481735e-04
1.046004e+03, 1.012264e-04
1.047050e+03, 1.056486e-04
1.048097e+03, 1.192875e-04
1.049145e+03, 1.326619e-04
1.050195e+03, 7.414432e-05
1.051245e+03, 1.110291e-04
1.052296e+03, 7.732192e-05
1.053348e+03, 1.260214e-04
1.054402e+03, 1.451359e-04
1.055456e+03, 1.549709e-04
1.056512e+03, 1.206299e-04
1.057568e+03, 1.342978e-04
1.058626e+03, 1.227624e-04
1.059684e+03, 2.482793e-04
1.060744e+03, 4.073813e-04
1.061805e+03, 1.784257e-04
1.062867e+03, 3.017300e-04
1.063929e+03, 4.933655e-04
1.064993e+03, 1.145941e-04
1.066058e+03, 3.223287e-04
1.067124e+03, 2.536524e-04
1.068191e+03, 4.535425e-04
1.069260e+03, 4.955213e-04
1.070329e+03, 2.876881e-04
1.071399e+03, 3.254158e-04
1.072471e+03, 3.757302e-04
1.073543e+03, 4.842697e-04
1.074617e+03, 4.171065e-04
1.075691e+03, 9.932526e-04
1.076767e+03, 6.339665e-04
1.077844e+03, 3.047950e-04
1.078922e+03, 4.854324e-04
1.080001e+03, 9.223630e-04
1.081081e+03, 5.555376e-04
1.082162e+03, 1.099393e-03
1.083244e+03, 1.147597e-03
1.084327e+03, 1.189561e-03
1.085411e+03, 6.471834e-04
1.086497e+03, 9.867330e-04
1.087583e+03, 1.087601e-03
1.088671e+03, 1.166548e-03
1.089759e+03, 8.680283e-04
1.090849e+03, 1.617694e-03
1.091940e+03, 1.785648e-03
1.093032e+03, 1.673123e-03
1.094125e+03, 5.547882e-04
1.095219e+03, 1.732874e-03
1.096314e+03, 1.897201e-03
1.097411e+03, 1.605809e-03
1.098508e+03, 1.822991e-03
1.099607e+03, 1.085300e-03
1.100706e+03, 9.387316e-04
1.101807e+03, 1.364943e-03
1.102909e+03, 5.173651e-03
1.104012e+03, 2.420137e-03
1.105116e+03, 3.313155e-03
1.106221e+03, 3.637067e-03
1.107327e+03, 3.788785e-03
1.108434e+03, 1.790540e-03
1.109543e+03, 2.619247e-03
1.110652e+03, 3.502781e-03
1.111763e+03, 5.077182e-03
1.112875e+03, 5.061121e-03
1.113988e+03, 2.809825e-03
1.115102e+03, 3.155773e-03
1.116217e+03, 1.996585e-03
1.117333e+03, 6.961548e-03
1.118450e+03, 5.902840e-03
1.119569e+03, 3.750239e-03
1.120688e+03, 4.387076e-03
1.121809e+03, 9.157665e-03
1.122931e+03, 8.606848e-03
1.124054e+03, 5.164064e-03
1.125178e+03, 5.441595e-03
1.126303e+03, 1.640985e-02
1.127429e+03, 1.138266e-02
1.128557e+03, 1.088456e-02
1.129685e+03, 9.400058e-03
1.130815e+03, 1.206123e-02
1.131946e+03, 1.176730e-02
1.133078e+03, 1.481252e-02
1.134211e+03, 1.037411e-02
1.135345e+03, 8.962822e-03
1.136480e+03, 1.572682e-02
1.137617e+03, 1.748821e-02
1.138754e+03, 1.558485e-02
1.139893e+03, 1.049642e-02
1.141033e+03, 2.090190e-02
1.142174e+03, 2.428731e-02
1.143316e+03, 1.671473e-02
1.144460e+03, 1.443803e-02
1.145604e+03, 1.750721e-02
1.146750e+03, 1.876651e-02
1.147896e+03, 2.372769e-02
1.149044e+03, 1.665283e-02
1.150193e+03, 2.024297e-02
1.151344e+03, 1.794587e-02
1.152495e+03, 2.490119e-02
1.153647e+03, 2.628898e-02
1.154801e+03, 2.340994e-02
1.155956e+03, 2.484755e-02
1.157112e+03, 3.560034e-02
1.158269e+03, 3.033515e-02
1.159427e+03, 2.029982e-02
1.160587e+03, 4.024328e-02
1.161747e+03, 1.406416e-02
1.162909e+03, 3.057994e-02
1.164072e+03, 2.629300e-02
1.165236e+03, 2.392229e-02
1.166401e+03, 1.541472e-02
1.167568e+03, 2.561450e-02
1.168735e+03, 3.715745e-02
1.169904e+03, 2.630344e-02
1.171074e+03, 2.982433e-02
1.172245e+03, 3.046683e-02
1.173417e+03, 4.041523e-02
1.174590e+03, 3.728724e-02
1.175765e+03, 3.034906e-02
1.176941e+03, 5.173525e-02
1.178118e+03, 6.125686e-02
1.179296e+03, 4.884292e-02
1.180475e+03, 4.314520e-02
1.181656e+03, 5.436431e-02
1.182837e+03, 5.172220e-02
1.184020e+03, 5.729323e-02
1.185204e+03, 4.716289e-02
1.186389e+03, 4.951831e-02
1.187576e+03, 6.342202e-02
1.188763e+03, 6.703127e-02
1.189952e+03, 7.521917e-02
1.191142e+03, 6.762429e-02
1.192333e+03, 5.329539e-02
1.193526e+03, 5.612614e-02
1.194719e+03, 9.709872e-02
1.195914e+03, 1.445609e-01
1.197110e+03, 2.793982e-01
1.198307e+03, 1.430678e-01
1.199505e+03, 1.915816e-01
1.200705e+03, 2.070901e-01
1.201905e+03, 1.458653e-01
1.203107e+03, 2.077894e-01
1.204310e+03, 1.755341e-01
1.205515e+03, 1.680816e-01
1.206720e+03, 2.002822e-01
1.207927e+03, 1.515699e-01
1.209135e+03, 1.388865e-01
1.210344e+03, 5.971522e-02
1.211554e+03, 6.464030e-02
1.212766e+03, 3.677271e-02
1.213979e+03, 1.480160e-02
1.215193e+03, 2.319606e-03
1.216408e+03, 3.967585e-03
1.217624e+03, 2.193010e-02
1.218842e+03, 4.905316e-02
1.220061e+03, 9.021937e-02
1.221281e+03, 1.610752e-01
1.222502e+03, 2.167043e-01
1.223724e+03, 3.246104e-01
1.224948e+03, 2.984467e-01
1.226173e+03, 5.438065e-01
1.227399e+03, 3.833689e-01
1.228627e+03, 5.533958e-01
1.229855e+03, 4.416803e-01
1.231085e+03, 7.280347e-01
1.232316e+03, 9.797477e-01
1.233549e+03, 8.837874e-01
1.234782e+03, 1.068798e+00
1.236017e+03, 8.437501e-01
1.237253e+03, 8.846937e-01
1.238490e+03, 1.212153e+00
1.239729e+03, 1.635936e+00
1.240968e+03, 1.104680e+00
1.242209e+03, 1.197297e+00
1.243452e+03, 1.558489e+00
1.244695e+03, 1.658340e+00
1.245940e+03, 1.161746e+00
1.247186e+03, 1.692787e+00
1.248433e+03, 1.973020e+00
1.249681e+03, 2.013799e+00
1.250931e+03, 1.881028e+00
1.252182e+03, 2.198951e+00
1.253434e+03, 2.121939e+00
1.254688e+03, 2.816311e+00
1.255942e+03, 1.791604e+00
1.257198e+03, 1.640817e+00
1.258455e+03, 1.718306e+00
1.259714e+03, 2.636004e+00
1.260974e+03, 2.297901e+00
1.262235e+03, 2.643214e+00
1.263497e+03, 2.544938e+00
1.264760e+03, 2.864867e+00
1.266025e+03, 2.763684e+00
1.267291e+03, 2.817197e+00
1.268558e+03, 2.412098e+00
1.269827e+03, 4.104193e+00
1.271097e+03, 3.291892e+00
1.272368e+03, 3.312707e+00
1.273640e+03, 4.539757e+00
1.274914e+03, 3.161412e+00
1.276189e+03, 3.495177e+00
1.277465e+03, 3.974918e+00
1.278742e+03, 3.585188e+00
1.280021e+03, 3.346092e+00
1.281301e+03, 5.369514e+00
1.282582e+03, 3.813475e+00
1.283865e+03, 5.660088e+00
1.285149e+03, 6.046839e+00
1.286434e+03, 4.046086e+00
1.287720e+03, 5.778439e+00
1.289008e+03, 6.713006e+00
1.290297e+03, 6.801149e+00
1.291588e+03, 7.447860e+00
1.292879e+03, 5.554737e+00
1.294172e+03, 8.535171e+00
1.295466e+03, 8.603548e+00
1.296762e+03, 9.271526e+00
1.298058e+03, 8.398651e+00
1.299356e+03, 8.805619e+00
1.300656e+03, 1.152247e+01
1.301956e+03, 1.220985e+01
1.303258e+03, 1.433403e+01
1.304562e+03, 1.245975e+01
1.305866e+03, 1.360174e+01
1.307172e+03, 1.410439e+01
1.308479e+03, 1.645778e+01
1.309788e+03, 1.639446e+01
1.311098e+03, 1.310713e+01
1.312409e+03, 1.197873e+01
1.313721e+03, 1.333795e+01
1.315035e+03, 1.147499e+01
1.316350e+03, 1.330870e+01
1.317666e+03, 1.602877e+01
1.318984e+03, 1.379549e+01
1.320303e+03, 1.536711e+01
1.321623e+03, 1.563208e+01
1.322945e+03, 1.384355e+01
1.324268e+03, 1.500250e+01
1.325592e+03, 1.668080e+01
1.326918e+03, 1.616324e+01
1.328244e+03, 1.838280e+01
1.329573e+03, 1.940318e+01
1.330902e+03, 2.426396e+01
1.332233e+03, 2.328422e+01
1.333565e+03, 2.283896e+01
1.334899e+03, 2.477898e+01
1.336234e+03, 2.438634e+01
1.337570e+03, 2.650401e+01
1.338908e+03, 2.644320e+01
1.340247e+03, 2.815670e+01
1.341587e+03, 3.256990e+01
1.342928e+03, 2.541531e+01
1.344271e+03, 3.459916e+01
1.345616e+03, 2.691212e+01
1.346961e+03, 2.877035e+01
1.348308e+03, 3.638098e+01
1.349656e+03, 3.368356e+01
1.351006e+03, 3.715788e+01
1.352357e+03, 4.404054e+01
1.353709e+03, 4.729224e+01
1.355063e+03, 5.034671e+01
1.356418e+03, 4.518186e+01
1.357775e+03, 5.043860e+01
1.359132e+03, 5.343470e+01
1.360492e+03, 5.277081e+01
1.361852e+03, 5.372510e+01
1.363214e+03, 5.006004e+01
1.364577e+03, 5.894995e+01
1.365942e+03, 4.922008e+01
1.367308e+03, 5.669246e+01
1.368675e+03, 5.053731e+01
1.370044e+03, 5.942808e+01
1.371414e+03, 5.554800e+01
1.372785e+03, 6.205042e+01
1.374158e+03, 5.770524e+01
1.375532e+03, 6.969797e+01
1.376908e+03, 6.632694e+01
1.378284e+03, 8.053865e+01
1.379663e+03, 7.752764e+01
1.381042e+03, 8.785548e+01
1.382423e+03, 9.299986e+01
1.383806e+03, 9.262628e+01
1.385190e+03, 9.826254e+01
1.386575e+03, 1.092730e+02
1.387961e+03, 1.165901e+02
1.389349e+03, 1.292805e+02
1.390739e+03, 1.280080e+02
1.392130e+03, 1.433102e+02
1.393522e+03, 1.449414e+02
1.394915e+03, 1.596448e+02
1.396310e+03, 1.739667e+02
1.397706e+03, 1.836159e+02
1.399104e+03, 2.014095e+02
1.400503e+03, 2.250143e+02
1.401904e+03, 2.411259e+02
1.403306e+03, 2.346086e+02
1.404709e+03, 2.614153e+02
1.406114e+03, 2.831830e+02
1.407520e+03, 3.254744e+02
1.408927e+03, 2.908022e+02
1.410336e+03, 2.904788e+02
1.411747e+03, 3.685137e+02
1.413158e+03, 3.067722e+02
1.414571e+03, 3.548668e+02
1.415986e+03, 3.389112e+02
1.417402e+03, 4.236193e+02
1.418819e+03, 3.918923e+02
1.420238e+03, 4.803951e+02
1.421658e+03, 4.482501e+02
1.423080e+03, 4.214496e+02
1.424503e+03, 4.331887e+02
1.425928e+03, 5.362572e+02
1.427354e+03, 4.822798e+02
1.428781e+03, 5.030559e+02
1.430210e+03, 5.479665e+02
1.431640e+03, 5.961258e+02
1.433072e+03, 5.397838e+02
1.434505e+03, 5.972335e+02
1.435939e+03, 6.371428e+02
1.437375e+03, 6.473308e+02
1.438813e+03, 7.180372e+02
1.440251e+03, 7.003368e+02
1.441692e+03, 7.207271e+02
1.443133e+03, 7.518246e+02
1.444576e+03, 7.923946e+02
1.446021e+03, 8.016964e+02
1.447467e+03, 7.408087e+02
1.448914e+03, 9.277988e+02
1.450363e+03, 9.800675e+02
1.451814e+03, 8.998269e+02
1.453266e+03, 9.859344e+02
1.454719e+03, 1.003682e+03
1.456174e+03, 1.071707e+03
1.457630e+03, 1.012592e+03
1.459087e+03, 1.032254e+03
1.460546e+03, 1.015574e+03
1.462007e+03, 1.199189e+03
1.463469e+03, 1.247428e+03
1.464932e+03, 1.243271e+03
1.466397e+03, 1.465778e+03
1.467864e+03, 1.402092e+03
1.469332e+03, 1.417444e+03
1.470801e+03, 1.575867e+03
1.472272e+03, 1.407492e+03
1.473744e+03, 1.384220e+03
1.475218e+03, 1.684912e+03
1.476693e+03, 1.733898e+03
1.478170e+03, 1.658200e+03
1.479648e+03, 1.756555e+03
1.481128e+03, 1.868851e+03
1.482609e+03, 1.940273e+03
1.484091e+03, 2.004733e+03
1.485575e+03, 2.218233e+03
1.487061e+03, 1.972682e+03
1.488548e+03, 2.140702e+03
1.490037e+03, 2.373729e+03
1.491527e+03, 2.363654e+03
1.493018e+03, 2.259472e+03
1.494511e+03, 2.289401e+03
1.496006e+03, 2.717998e+03
1.497502e+03, 2.673289e+03
1.498999e+03, 2.845468e+03
1.500498e+03, 2.989498e+03
1.501999e+03, 2.956766e+03
1.503501e+03, 3.068436e+03
1.505004e+03, 3.115037e+03
1.506509e+03, 3.486227e+03
1.508016e+03, 3.514871e+03
1.509524e+03, 3.614761e+03
1.511033e+03, 3.650431e+03
1.512544e+03, 3.607664e+03
1.514057e+03, 3.570769e+03
1.515571e+03, 3.500834e+03
1.517086e+03, 3.504610e+03
1.518603e+03, 3.526145e+03
1.520122e+03, 3.614599e+03
1.521642e+03, 3.547117e+03
1.523164e+03, 3.663997e+03
1.524687e+03, 3.667196e+03
1.526212e+03, 3.729675e+03
1.527738e+03, 3.847018e+03
1.529266e+03, 3.657851e+03
1.530795e+03, 3.926065e+03
1.532326e+03, 3.676662e+03
1.533858e+03, 3.618871e+03
1.535392e+03, 3.727257e+03
1.536927e+03, 3.910148e+03
1.538464e+03, 3.859882e+03
1.540003e+03, 3.938628e+03
1.541543e+03, 4.034889e+03
1.543084e+03, 4.485544e+03
1.544627e+03, 4.083543e+03
1.546172e+03, 4.293857e+03
1.547718e+03, 4.466788e+03
1.549266e+03, 4.165886e+03
1.550815e+03, 4.293698e+03
1.552366e+03, 4.179520e+03
1.553918e+03, 4.878850e+03
1.555472e+03, 4.909532e+03
1.557028e+03, 5.629115e+03
1.558585e+03, 5.959151e+03
1.560143e+03, 6.224322e+03
1.561703e+03, 6.610767e+03
1.563265e+03, 6.739097e+03
1.564828e+03, 7.427371e+03
1.566393e+03, 7.987718e+03
1.567960e+03, 7.853668e+03
1.569528e+03, 8.388714e+03
1.571097e+03, 8.607801e+03
1.572668e+03, 8.963934e+03
1.574241e+03, 8.915709e+03
1.575815e+03, 9.320876e+03
1.577391e+03, 1.002497e+04
1.578968e+03, 1.061057e+04
1.580547e+03, 9.230678e+03
1.582128e+03, 8.860394e+03
1.583710e+03, 1.005078e+04
1.585294e+03, 1.017506e+04
1.586879e+03, 1.009443e+04
1.588466e+03, 1.105086e+04
1.590054e+03, 1.105614e+04
1.591644e+03, 1.153867e+04
1.593236e+03, 9.879403e+03
1.594829e+03, 1.068871e+04
1.596424e+03, 1.102351e+04
1.598020e+03, 1.126635e+04
1.599618e+03, 1.179357e+04
1.601218e+03, 1.128511e+04
1.602819e+03, 1.154708e+04
1.604422e+03, 1.150541e+04
1.606027e+03, 1.123411e+04
1.607633e+03, 1.271455e+04
1.609240e+03, 1.128965e+04
1.610849e+03, 1.237600e+04
1.612460e+03, 1.157650e+04
1.614073e+03, 1.342510e+04
1.615687e+03, 1.353053e+04
1.617303e+03, 1.266494e+04
1.618920e+03, 1.530393e+04
1.620539e+03, 1.327469e+04
1.622159e+03, 1.360299e+04
1.623781e+03, 1.562620e+04
1.625405e+03, 1.498551e+04
1.627031e+03, 1.645407e+04
1.628658e+03, 1.812633e+04
1.630286e+03, 1.974735e+04
1.631917e+03, 2.143204e+04
1.633549e+03, 2.076593e+04
1.635182e+03, 1.878332e+04
1.636817e+03, 2.404441e+04
1.638454e+03, 2.042812e+04
1.640093e+03, 1.810079e+04
1.641733e+03, 2.182108e+04
1.643374e+03, 2.625610e+04
1.645018e+03, 2.695577e+04
1.646663e+03, 2.638947e+04
1.648309e+03, 3.078571e+04
1.649958e+03, 2.830852e+04
1.651608e+03, 2.627901e+04
1.653259e+03, 3.242879e+04
1.654913e+03, 3.052721e+04
1.656567e+03, 2.901090e+04
1.658224e+03, 3.339258e+04
1.659882e+03, 3.164553e+04
1.661542e+03, 3.651122e+04
1.663204e+03, 3.745510e+04
1.664867e+03, 4.433435e+04
1.666532e+03, 3.516127e+04
1.668198e+03, 3.523377e+04
1.669866e+03, 3.082210e+04
1.671536e+03, 3.761911e+04
1.673208e+03, 4.098797e+04
1.674881e+03, 4.383958e+04
1.676556e+03, 4.715438e+04
1.678233e+03, 4.830161e+04
1.679911e+03, 5.027545e+04
1.681591e+03, 4.439171e+04
1.683272e+03, 4.767694e+04
1.684956e+03, 5.476011e+04
1.686640e+03, 5.154244e+04
1.688327e+03, 5.722088e+04
1.690015e+03, 5.732041e+04
1.691705e+03, 6.622585e+04
1.693397e+03, 5.749621e+04
1.695091e+03, 6.836499e+04
1.696786e+03, 8.587458e+04
1.698482e+03, 6.249238e+04
1.700181e+03, 5.810090e+04
1.701881e+03, 6.318485e+04
1.703583e+03, 6.174737e+04
1.705287e+03, 7.475188e+04
1.706992e+03, 8.772578e+04
1.708699e+03, 8.156496e+04
1.710408e+03, 8.981211e+04
1.712118e+03, 9.335121e+04
1.713830e+03, 1.042126e+05
1.715544e+03, 9.085204e+04
1.717259e+03, 7.249779e+04
1.718977e+03, 8.812739e+04
1.720696e+03, 9.268882e+04
1.722416e+03, 9.139520e+04
1.724139e+03, 1.068418e+05
1.725863e+03, 1.154485e+05
1.727589e+03, 1.378345e+05
1.729316e+03, 1.377520e+05
1.731046e+03, 1.373125e+05
1.732777e+03, 1.497392e+05
1.734510e+03, 1.021215e+05
1.736244e+03, 1.211177e+05
1.737980e+03, 1.252592e+05
1.739718e+03, 1.207331e+05
1.741458e+03, 1.326359e+05
1.743199e+03, 1.492318e+05
1.744943e+03, 1.709856e+05
1.746688e+03, 1.811095e+05
1.748434e+03, 1.659263e+05
1.750183e+03, 1.577092e+05
1.751933e+03, 1.522891e+05
1.753685e+03, 1.432010e+05
1.755439e+03, 1.810346e+05
1.757194e+03, 1.759564e+05
1.758951e+03, 1.758845e+05
1.760710e+03, 1.925260e+05
1.762471e+03, 1.834577e+05
1.764233e+03, 2.037458e+05
1.765998e+03, 2.123213e+05
1.767764e+03, 2.761665e+05
1.769531e+03, 2.492466e+05
1.771301e+03, 2.023296e+05
1.773072e+03, 1.821873e+05
1.774845e+03, 2.242889e+05
1.776620e+03, 2.302468e+05
1.778397e+03, 2.617725e+05
1.780175e+03, 2.673489e+05
1.781955e+03, 3.063731e+05
1.783737e+03, 3.368888e+05
1.785521e+03, 3.279765e+05
1.787306e+03, 3.567273e+05
1.789094e+03, 3.305426e+05
1.790883e+03, 3.059708e+05
1.792674e+03, 2.689058e+05
1.794466e+03, 3.330669e+05
1.796261e+03, 3.708741e+05
1.798057e+03, 3.535374e+05
1.799855e+03, 3.722899e+05
1.801655e+03, 4.134698e+05
1.803457e+03, 4.481540e+05
1.805260e+03, 4.280272e+05
1.807065e+03, 4.347274e+05
1.808872e+03, 5.213802e+05
1.810681e+03, 4.515083e+05
1.812492e+03, 3.349866e+05
1.814304e+03, 4.014219e+05
1.816119e+03, 4.378103e+05
1.817935e+03, 4.885271e+05
1.819753e+03, 4.306883e+05
1.821573e+03, 4.792774e+05
1.823394e+03, 5.813912e+05
1.825218e+03, 5.794592e+05
1.827043e+03, 5.744032e+05
1.828870e+03, 6.145205e+05
1.830699e+03, 6.434523e+05
1.832529e+03, 4.934166e+05
1.834362e+03, 4.924855e+05
1.836196e+03, 5.348761e+05
1.838032e+03, 6.143569e+05
1.839871e+03, 5.996614e+05
1.841710e+03, 6.362573e+05
1.843552e+03, 7.321065e+05
1.845396e+03, 7.726733e+05
1.847241e+03, 8.107906e+05
1.849088e+03, 8.329635e+05
1.850937e+03, 7.607778e+05
1.852788e+03, 7.388879e+05
1.854641e+03, 6.275190e+05
1.856496e+03, 6.295777e+05
1.858352e+03, 7.444991e+05
1.860211e+03, 8.536960e+05
1.862071e+03, 8.619950e+05
1.863933e+03, 8.044948e+05
1.865797e+03, 8.759302e+05
1.867663e+03, 1.027704e+06
1.869530e+03, 1.000685e+06
1.871400e+03, 1.016305e+06
1.873271e+03, 9.597686e+05
1.875144e+03, 9.624535e+05
1.877020e+03, 9.853745e+05
1.878897e+03, 9.434109e+05
1.880776e+03, 1.038939e+06
1.882656e+03, 1.090628e+06
1.884539e+03, 1.263887e+06
1.886424e+03, 1.235577e+06
1.888310e+03, 1.328517e+06
1.890198e+03, 1.350530e+06
1.892088e+03, 1.556171e+06
1.893981e+03, 1.560798e+06
1.895875e+03, 1.486066e+06
1.897770e+03, 1.460154e+06
1.899668e+03, 1.322654e+06
1.901568e+03, 1.491169e+06
1.903469e+03, 1.704086e+06
1.905373e+03, 1.696551e+06
1.907278e+03, 1.818565e+06
1.909186e+03, 1.879487e+06
1.911095e+03, 2.023095e+06
1.913006e+03, 2.047734e+06
1.914919e+03, 2.112329e+06
1.916834e+03, 2.250763e+06
1.918751e+03, 2.065189e+06
1.920669e+03, 2.096317e+06
1.922590e+03, 2.056460e+06
1.924513e+03, 2.126848e+06
1.926437e+03, 2.329293e+06
1.928364e+03, 2.281018e+06
1.930292e+03, 2.442964e+06
1.932222e+03, 2.645396e+06
1.934154e+03, 2.579963e+06
1.936089e+03, 2.519260e+06
1.938025e+03, 2.829844e+06
1.939963e+03, 2.715988e+06
1.941903e+03, 3.125921e+06
1.943845e+03, 2.742760e+06
1.945788e+03, 2.719946e+06
1.947734e+03, 3.006494e+06
1.949682e+03, 2.963071e+06
1.951632e+03, 2.965893e+06
1.953583e+03, 3.591684e+06
1.955537e+03, 3.320427e+06
1.957492e+03, 3.648925e+06
1.959450e+03, 3.473959e+06
1.961409e+03, 3.607895e+06
1.963371e+03, 3.816441e+06
1.965334e+03, 3.994792e+06
1.967299e+03, 4.000749e+06
1.969267e+03, 3.844391e+06
1.971236e+03, 4.320722e+06
1.973207e+03, 4.111678e+06
1.975180e+03, 4.521086e+06
1.977156e+03, 4.505244e+06
1.979133e+03, 4.765428e+06
1.981112e+03, 4.934481e+06
1.983093e+03, 5.245420e+06
1.985076e+03, 5.490377e+06
1.987061e+03, 5.389955e+06
1.989048e+03, 5.398949e+06
1.991037e+03, 4.996656e+06
1.993028e+03, 5.303396e+06
1.995021e+03, 5.157028e+06
1.997016e+03, 5.407868e+06
1.999013e+03, 5.676209e+06
2.001012e+03, 5.826376e+06
2.003013e+03, 6.296695e+06
2.005016e+03, 6.232710e+06
2.007021e+03, 6.170633e+06
2.009028e+03, 6.759924e+06
2.011037e+03, 6.997535e+06
2.013048e+03, 7.390617e+06
2.015062e+03, 7.336269e+06
2.017077e+03, 7.119220e+06
2.019094e+03, 7.314569e+06
2.021113e+03, 7.377600e+06
2.023134e+03, 7.431911e+06
2.025157e+03, 7.855252e+06
2.027182e+03, 7.454604e+06
2.029209e+03, 8.591454e+06
2.031239e+03, 8.687681e+06
2.033270e+03, 9.009186e+06
2.035303e+03, 8.596578e+06
2.037338e+03, 9.313115e+06
2.039376e+03, 9.582714e+06
2.041415e+03, 9.521332e+06
2.043457e+03, 9.714405e+06
2.045500e+03, 9.662626e+06
2.047545e+03, 9.642792e+06
2.049593e+03, 1.038899e+07
2.051643e+03, 1.055153e+07
2.053694e+03, 1.078049e+07
2.055748e+03, 1.055013e+07
2.057804e+03, 1.190919e+07
2.059861e+03, 1.092161e+07
2.061921e+03, 1.160542e+07
2.063983e+03, 1.167731e+07
2.066047e+03, 1.139290e+07
2.068113e+03, 1.268846e+07
2.070181e+03, 1.212763e+07
2.072252e+03, 2.030486e+07
2.074324e+03, 1.763650e+07
2.076398e+03, 1.744171e+07
2.078475e+03, 1.498621e+07
2.080553e+03, 2.162304e+07
2.082634e+03, 2.198647e+07
2.084716e+03, 2.129190e+07
2.086801e+03, 2.257676e+07
2.088888e+03, 2.761327e+07
2.090977e+03, 3.137798e+07
2.093068e+03, 2.909718e+07
2.095161e+03, 2.119892e+07
2.097256e+03, 2.956295e+07
2.099353e+03, 3.003237e+07
2.101452e+03, 2.845647e+07
2.103554e+03, 2.848491e+07
2.105657e+03, 2.742402e+07
2.107763e+03, 2.848745e+07
2.109871e+03, 2.772500e+07
2.111981e+03, 3.806283e+07
2.114093e+03, 3.265005e+07
2.116207e+03, 2.691011e+07
2.118323e+03, 2.942665e+07
2.120441e+03, 3.669694e+07
2.122562e+03, 4.637923e+07
2.124684e+03, 3.733310e+07
2.126809e+03, 3.258066e+07
2.128936e+03, 3.401476e+07
2.131065e+03, 4.149752e+07
2.133196e+03, 4.030522e+07
2.135329e+03, 3.936873e+07
2.137464e+03, 4.163457e+07
2.139602e+03, 4.266615e+07
2.141741e+03, 2.936240e+07
2.143883e+03, 4.369587e+07
2.146027e+03, 4.540633e+07
2.148173e+03, 3.075441e+07
2.150321e+03, 3.478909e+07
2.152472e+03, 4.572429e+07
2.154624e+03, 4.824219e+07
2.156779e+03, 5.635740e+07
2.158935e+03, 4.560993e+07
2.161094e+03, 4.554313e+07
2.163255e+03, 3.999867e+07
2.165419e+03, 4.328622e+07
2.167584e+03, 4.438461e+07
2.169752e+03, 4.209644e+07
2.171921e+03, 5.623003e+07
2.174093e+03, 5.175858e+07
2.176268e+03, 7.811174e+07
2.178444e+03, 3.365345e+07
2.180622e+03, 4.582394e+07
2.182803e+03, 4.613874e+07
2.184986e+03, 5.362623e+07
2.187171e+03, 5.823597e+07
2.189358e+03, 7.301202e+07
2.191547e+03, 7.071678e+07
2.193739e+03, 6.860846e+07
2.195932e+03, 7.947240e+07
2.198128e+03, 7.718028e+07
2.200327e+03, 4.867423e+07
2.202527e+03, 7.651203e+07
2.204729e+03, 6.292030e+07
2.206934e+03, 1.092936e+08
2.209141e+03, 8.283066e+07
2.211350e+03, 7.905831e+07
2.213562e+03, 1.065388e+08
2.215775e+03, 8.262577e+07
2.217991e+03, 6.754409e+07
2.220209e+03, 6.018116e+07
2.222429e+03, 6.629116e+07
2.224651e+03, 9.435412e+07
2.226876e+03, 7.333200e+07
2.229103e+03, 1.241430e+08
2.231332e+03, 9.843788e+07
2.233563e+03, 1.496407e+08
2.235797e+03, 1.983350e+08
2.238033e+03, 8.326486e+07
2.240271e+03, 1.174166e+08
2.242511e+03, 1.123908e+08
2.244754e+03, 1.342734e+08
2.246998e+03, 1.563628e+08
2.249245e+03, 1.526501e+08
2.251495e+03, 1.813129e+08
2.253746e+03, 2.063540e+08
2.256000e+03, 1.740740e+08
2.258256e+03, 7.838150e+07
2.260514e+03, 6.918915e+07
2.262775e+03, 9.312575e+07
2.265037e+03, 1.091655e+08
2.267302e+03, 1.225637e+08
2.269570e+03, 1.195237e+08
2.271839e+03, 1.697403e+08
2.274111e+03, 2.229905e+08
2.276385e+03, 1.649549e+08
2.278662e+03, 1.993837e+08
2.280940e+03, 1.677270e+08
2.283221e+03, 1.767896e+08
2.285504e+03, 1.760084e+08
2.287790e+03, 1.729825e+08
2.290078e+03, 1.950824e+08
2.292368e+03, 2.668512e+08
2.294660e+03, 2.303224e+08
2.296955e+03, 2.905398e+08
2.299252e+03, 1.982775e+08
2.301551e+03, 1.000651e+08
2.303853e+03, 1.220378e+08
2.306156e+03, 1.606160e+08
2.308463e+03, 2.090074e+08
2.310771e+03, 1.928470e+08
2.313082e+03, 2.354865e+08
2.315395e+03, 3.528446e+08
2.317710e+03, 4.805970e+08
2.320028e+03, 3.098946e+08
2.322348e+03, 2.236459e+08
2.324670e+03, 2.747355e+08
2.326995e+03, 2.689500e+08
2.329322e+03, 2.849520e+08
2.331651e+03, 4.717615e+08
2.333983e+03, 4.384785e+08
2.336317e+03, 3.939827e+08
2.338653e+03, 4.240919e+08
2.340992e+03, 5.691862e+08
2.343333e+03, 3.346549e+08
2.345676e+03, 1.729238e+08
2.348022e+03, 1.874095e+08
2.350370e+03, 2.502387e+08
2.352720e+03, 2.393476e+08
2.355073e+03, 2.440274e+08
2.357428e+03, 3.109024e+08
2.359786e+03, 4.028250e+08
2.362145e+03, 3.999066e+08
2.364508e+03, 4.964887e+08
2.366872e+03, 1.984960e+08
2.369239e+03, 2.871883e+08
2.371608e+03, 3.327429e+08
2.373980e+03, 2.773550e+08
2.376354e+03, 4.257436e+08
2.378730e+03, 4.737396e+08
2.381109e+03, 7.352080e+08
2.383490e+03, 6.775957e+08
2.385873e+03, 5.636695e+08
2.388259e+03, 5.253524e+08
2.390648e+03, 4.496803e+08
2.393038e+03, 4.732436e+08
2.395431e+03, 5.662332e+08
2.397827e+03, 6.900800e+08
2.400225e+03, 7.310410e+08
2.402625e+03, 9.764801e+08
2.405027e+03, 1.304636e+09
2.407432e+03, 1.061565e+09
2.409840e+03, 1.261916e+09
2.412250e+03, 7.966188e+08
2.414662e+03, 3.962920e+08
2.417077e+03, 4.965728e+08
2.419494e+03, 5.165815e+08
2.421913e+03, 5.638907e+08
2.424335e+03, 6.537208e+08
2.426759e+03, 9.221808e+08
2.429186e+03, 1.736817e+09
2.431615e+03, 1.486592e+09
2.434047e+03, 9.717278e+08
2.436481e+03, 9.395519e+08
2.438918e+03, 1.320817e+09
2.441356e+03, 1.267045e+09
2.443798e+03, 1.364270e+09
2.446242e+03, 1.646547e+09
2.448688e+03, 2.085521e+09
2.451137e+03, 1.914454e+09
2.453588e+03, 2.227877e+09
2.456041e+03, 2.741763e+09
2.458497e+03, 1.222236e+09
2.460956e+03, 8.508863e+08
2.463417e+03, 7.534085e+08
2.465880e+03, 1.344038e+09
2.468346e+03, 1.882154e+09
2.470814e+03, 1.721327e+09
2.473285e+03, 1.236414e+09
2.475758e+03, 2.299096e+09
2.478234e+03, 2.369577e+09
2.480712e+03, 1.286679e+09
2.483193e+03, 7.695494e+08
2.485676e+03, 8.898074e+08
2.488162e+03, 5.400858e+08
2.490650e+03, 5.665592e+08
2.493141e+03, 9.341437e+08
2.495634e+03, 1.299147e+09
2.498130e+03, 1.570669e+09
2.500628e+03, 1.441941e+09
2.503128e+03, 2.021102e+09
2.505632e+03, 2.091193e+09
2.508137e+03, 1.789479e+09
2.510645e+03, 1.008604e+09
2.513156e+03, 1.403319e+09
2.515669e+03, 1.642599e+09
2.518185e+03, 1.462881e+09
2.520703e+03, 1.950488e+09
2.523224e+03, 1.196498e+09
2.525747e+03, 2.294196e+09
2.528273e+03, 1.605807e+09
2.530801e+03, 2.033960e+09
2.533332e+03, 3.658401e+09
2.535865e+03, 3.648281e+09
2.538401e+03, 5.426951e+09
2.540939e+03, 3.923086e+09
2.543480e+03, 4.767403e+09
2.546024e+03, 3.108972e+09
2.548570e+03, 6.313970e+09
2.551118e+03, 4.897140e+09
2.553669e+03, 7.915782e+09
2.556223e+03, 5.299462e+09
2.558779e+03, 3.929174e+09
2.561338e+03, 4.658591e+09
2.563899e+03, 2.743133e+09
2.566463e+03, 2.242059e+09
2.569030e+03, 3.325011e+09
2.571599e+03, 4.723022e+09
2.574170e+03, 4.909290e+09
2.576745e+03, 3.870021e+09
2.579321e+03, 4.898729e+09
2.581901e+03, 4.086966e+09
2.584483e+03, 4.073037e+09
2.587067e+03, 3.503990e+09
2.589654e+03, 2.551663e+09
2.592244e+03, 3.616780e+09
2.594836e+03, 4.182212e+09
2.597431e+03, 7.524580e+09
2.600028e+03, 5.461991e+09
2.602628e+03, 7.253864e+09
2.605231e+03, 8.944107e+09
2.607836e+03, 5.701708e+09
2.610444e+03, 6.565528e+09
2.613054e+03, 5.235993e+09
2.615667e+03, 6.722149e+09
2.618283e+03, 7.095373e+09
2.620901e+03, 8.864430e+09
2.623522e+03, 8.797050e+09
2.626146e+03, 1.292472e+10
2.628772e+03, 1.179306e+10
2.631401e+03, 1.477195e+10
2.634032e+03, 1.484709e+10
2.636666e+03, 1.720580e+10
2.639303e+03, 2.506628e+10
2.641942e+03, 1.648097e+10
2.644584e+03, 1.152867e+10
2.647229e+03, 8.383361e+09
2.649876e+03, 1.344128e+10
2.652526e+03, 1.212319e+10
2.655178e+03, 2.190572e+10
2.657834e+03, 1.878471e+10
2.660491e+03, 1.383345e+10
2.663152e+03, 1.777501e+10
2.665815e+03, 1.302794e+10
2.668481e+03, 1.247686e+10
2.671149e+03, 8.985609e+09
2.673820e+03, 1.447410e+10
2.676494e+03, 1.794007e+10
2.679171e+03, 1.658988e+10
2.681850e+03, 1.567118e+10
2.684532e+03, 2.104439e+10
2.687216e+03, 2.051659e+10
2.689904e+03, 1.381907e+10
2.692593e+03, 1.210100e+10
2.695286e+03, 1.071670e+10
2.697981e+03, 1.235881e+10
2.700679e+03, 1.856562e+10
2.703380e+03, 1.872180e+10
2.706083e+03, 2.709387e+10
2.708789e+03, 2.412630e+10
2.711498e+03, 2.409454e+10
2.714210e+03, 1.949379e+10
2.716924e+03, 1.676387e+10
2.719641e+03, 6.412512e+09
2.722360e+03, 8.272435e+09
2.725083e+03, 1.225057e+10
2.727808e+03, 1.902903e+10
2.730536e+03, 1.873389e+10
2.733266e+03, 1.601387e+10
2.736000e+03, 1.433169e+10
2.738736e+03, 1.530447e+10
2.741474e+03, 2.193827e+10
2.744216e+03, 1.063984e+10
2.746960e+03, 2.621009e+10
2.749707e+03, 1.952512e+10
2.752457e+03, 2.438079e+10
2.755209e+03, 2.233938e+10
2.757964e+03, 1.926943e+10
2.760722e+03, 3.027986e+10
2.763483e+03, 2.908330e+10
2.766246e+03, 4.758955e+10
2.769013e+03, 3.321479e+10
2.771782e+03, 3.768476e+10
2.774554e+03, 4.384251e+10
2.777328e+03, 4.728173e+10
2.780105e+03, 2.391982e+10
2.782886e+03, 2.622188e+10
2.785668e+03, 4.022071e+10
2.788454e+03, 2.944613e+10
2.791243e+03, 4.961564e+10
2.794034e+03, 4.676771e+10
2.796828e+03, 3.359157e+10
2.799625e+03, 2.914531e+10
2.802424e+03, 3.241497e+10
2.805227e+03, 5.114317e+10
2.808032e+03, 3.254132e+10
2.810840e+03, 4.989184e+10
2.813651e+03, 4.603464e+10
2.816464e+03, 6.294079e+10
2.819281e+03, 5.659649e+10
2.822100e+03, 4.077454e+10
2.824922e+03, 4.696231e+10
2.827747e+03, 3.852223e+10
2.830575e+03, 4.865719e+10
2.833406e+03, 3.652319e+10
2.836239e+03, 3.342479e+10
2.839075e+03, 3.462996e+10
2.841914e+03, 3.152615e+10
2.844756e+03, 2.360101e+10
2.847601e+03, 1.687649e+10
2.850448e+03, 1.021268e+10
2.853299e+03, 4.797287e+09
2.856152e+03, 1.344812e+10
2.859008e+03, 2.191868e+10
2.861867e+03, 3.135564e+10
2.864729e+03, 3.677056e+10
2.867594e+03, 4.476409e+10
2.870462e+03, 5.042526e+10
2.873332e+03, 4.689061e+10
2.876205e+03, 4.895444e+10
2.879082e+03, 6.215959e+10
2.881961e+03, 6.906884e+10
2.884843e+03, 9.669398e+10
2.887727e+03, 1.075237e+11
2.890615e+03, 1.176065e+11
2.893506e+03, 1.168195e+11
2.896399e+03, 1.089539e+11
2.899296e+03, 1.107135e+11
2.902195e+03, 1.015139e+11
2.905097e+03, 1.326726e+11
2.908002e+03, 1.483871e+11
2.910910e+03, 1.257153e+11
2.913821e+03, 1.134071e+11
2.916735e+03, 1.818759e+11
2.919652e+03, 1.654367e+11
2.922571e+03, 1.763648e+11
2.925494e+03, 1.652263e+11
2.928420e+03, 8.232905e+10
2.931348e+03, 1.172070e+11
2.934279e+03, 1.532012e+11
2.937214e+03, 6.372065e+10
2.940151e+03, 1.392478e+11
2.943091e+03, 8.120435e+10
2.946034e+03, 1.145038e+11
2.948980e+03, 6.621098e+10
2.951929e+03, 1.640688e+11
2.954881e+03, 7.530676e+10
2.957836e+03, 7.048133e+10
2.960794e+03, 1.781474e+11
2.963754e+03, 1.555633e+11
2.966718e+03, 4.508690e+10
2.969685e+03, 5.633030e+10
2.972655e+03, 5.958460e+10
2.975627e+03, 8.628934e+10
2.978603e+03, 1.672326e+11
2.981581e+03, 1.134782e+11
2.984563e+03, 5.519241e+10
2.987548e+03, 1.099272e+11
2.990535e+03, 1.877892e+11
2.993526e+03, 1.004722e+11
2.996519e+03, 6.893549e+10
2.999516e+03, 9.766440e+10
3.002515e+03, 4.472634e+10
3.005518e+03, 1.085736e+11
3.008523e+03, 5.343628e+10
3.011532e+03, 1.402953e+11
3.014543e+03, 1.470235e+11
3.017558e+03, 1.098843e+11
3.020575e+03, 3.466709e+10
3.023596e+03, 6.559131e+10
3.026620e+03, 7.021457e+10
3.029646e+03, 1.975697e+11
3.032676e+03, 2.316035e+11
3.035709e+03, 2.249787e+11
3.038744e+03, 9.837445e+10
3.041783e+03, 1.679076e+11
3.044825e+03, 1.962912e+11
3.047870e+03, 1.043261e+11
3.050918e+03, 1.429102e+11
3.053968e+03, 2.049666e+11
3.057022e+03, 1.658681e+11
3.060079e+03, 9.041556e+10
3.063140e+03, 2.854694e+11
3.066203e+03, 3.507954e+11
3.069269e+03, 3.560277e+11
3.072338e+03, 4.432293e+11
3.075410e+03, 3.188815e+11
3.078486e+03, 3.903391e+11
3.081564e+03, 1.876607e+11
3.084646e+03, 1.760287e+11
3.087731e+03, 3.743506e+11
3.090818e+03, 2.618843e+11
3.093909e+03, 9.257873e+10
3.097003e+03, 2.751951e+11
3.100100e+03, 2.618800e+11
3.103200e+03, 2.473222e+11
3.106303e+03, 5.342410e+11
3.109410e+03, 6.616785e+11
3.112519e+03, 6.403085e+11
3.115632e+03, 6.141875e+11
3.118747e+03, 5.919282e+11
3.121866e+03, 6.520970e+11
3.124988e+03, 7.851988e+11
3.128113e+03, 8.622526e+11
3.131241e+03, 5.842160e+11
3.134372e+03, 4.133918e+11
3.137507e+03, 7.537116e+11
3.140644e+03, 8.051206e+11
3.143785e+03, 8.416054e+11
3.146928e+03, 7.919278e+11
3.150075e+03, 9.456754e+11
3.153225e+03, 8.286594e+11
3.156379e+03, 1.025798e+12
3.159535e+03, 6.885544e+11
3.162695e+03, 7.211488e+11
3.165857e+03, 8.921185e+11
3.169023e+03, 1.019502e+12
3.172192e+03, 9.982514e+11
3.175364e+03, 1.300425e+12
3.178540e+03, 1.216403e+12
3.181718e+03, 7.659970e+11
3.184900e+03, 4.248641e+11
3.188085e+03, 7.765707e+11
3.191273e+03, 6.771580e+11
3.194464e+03, 5.639809e+11
3.197659e+03, 7.485383e+11
3.200856e+03, 5.976442e+11
3.204057e+03, 1.127759e+12
3.207261e+03, 1.223450e+12
3.210469e+03, 1.064969e+12
3.213679e+03, 7.952478e+11
3.216893e+03, 7.653152e+11
3.220110e+03, 1.078774e+12
3.223330e+03, 8.482490e+11
3.226553e+03, 6.686401e+11
3.229780e+03, 8.448039e+11
3.233009e+03, 9.073763e+11
3.236242e+03, 6.600002e+11
3.239479e+03, 1.280993e+12
3.242718e+03, 1.084972e+12
3.245961e+03, 9.751179e+11
3.249207e+03, 7.953759e+11
3.252456e+03, 1.320326e+12
3.255708e+03, 1.516128e+12
3.258964e+03, 1.691596e+12
3.262223e+03, 1.799922e+12
3.265485e+03, 1.296048e+12
3.268751e+03, 2.009095e+12
3.272020e+03, 1.235395e+12
3.275292e+03, 1.191887e+12
3.278567e+03, 1.914294e+12
3.281845e+03, 1.882566e+12
3.285127e+03, 1.554289e+12
3.288412e+03, 1.515277e+12
3.291701e+03, 2.020020e+12
3.294993e+03, 2.284410e+12
3.298288e+03, 2.140738e+12
3.301586e+03, 1.693914e+12
3.304887e+03, 1.170741e+12
3.308192e+03, 1.388520e+12
3.311500e+03, 1.792378e+12
3.314812e+03, 1.563440e+12
3.318127e+03, 1.578572e+12
3.321445e+03, 1.742680e+12
3.324766e+03, 1.600949e+12
3.328091e+03, 2.364720e+12
3.331419e+03, 1.977711e+12
3.334751e+03, 1.531193e+12
3.338085e+03, 1.678065e+12
3.341423e+03, 1.552699e+12
3.344765e+03, 1.575818e+12
3.348110e+03, 2.171555e+12
3.351458e+03, 9.276817e+11
3.354809e+03, 1.474380e+12
3.358164e+03, 1.667259e+12
3.361522e+03, 5.295266e+11
3.364884e+03, 1.805028e+12
3.368249e+03, 1.224500e+12
3.371617e+03, 5.263904e+11
3.374988e+03, 1.257669e+12
3.378363e+03, 1.494171e+12
3.381742e+03, 9.962958e+11
3.385124e+03, 1.687684e+12
3.388509e+03, 1.640169e+12
3.391897e+03, 1.155010e+12
3.395289e+03, 1.274617e+12
3.398684e+03, 1.948875e+12
3.402083e+03, 2.075045e+12
3.405485e+03, 1.616535e+12
3.408891e+03, 1.567882e+12
3.412300e+03, 1.350586e+12
3.415712e+03, 5.055076e+11
3.419128e+03, 1.591427e+12
3.422547e+03, 2.021163e+12
3.425969e+03, 1.371406e+12
3.429395e+03, 1.925407e+12
3.432825e+03, 1.328540e+12
3.436257e+03, 1.148743e+12
3.439694e+03, 5.744382e+11
3.443133e+03, 3.010605e+11
3.446576e+03, 5.602296e+11
3.450023e+03, 1.503350e+12
3.453473e+03, 1.007904e+12
3.456927e+03, 1.776965e+12
3.460383e+03, 1.150932e+12
3.463844e+03, 1.161470e+12
3.467308e+03, 7.643987e+11
3.470775e+03, 1.794994e+12
3.474246e+03, 1.218588e+12
3.477720e+03, 6.278608e+11
3.481198e+03, 2.270847e+12
3.484679e+03, 1.983935e+12
3.488164e+03, 1.922566e+12
3.491652e+03, 6.164636e+11
3.495143e+03, 1.150714e+12
3.498639e+03, 1.057740e+12
3.502137e+03, 1.797055e+12
3.505639e+03, 3.095417e+12
3.509145e+03, 2.695272e+12
3.512654e+03, 1.534222e+12
3.516167e+03, 9.802181e+11
3.519683e+03, 2.132894e+12
3.523203e+03, 1.132807e+12
3.526726e+03, 5.760779e+11
3.530253e+03, 2.008471e+12
3.533783e+03, 2.721148e+12
3.537317e+03, 3.267565e+12
3.540854e+03, 3.654442e+12
3.544395e+03, 3.892774e+12
3.547939e+03, 2.856805e+12
3.551487e+03, 3.265219e+12
3.555039e+03, 2.489103e+12
3.558594e+03, 2.062191e+12
3.562152e+03, 2.559022e+12
3.565714e+03, 1.239842e+12
3.569280e+03, 1.148495e+12
3.572849e+03, 1.184812e+12
3.576422e+03, 1.357620e+12
3.579999e+03, 5.001723e+11
3.583579e+03, 9.098923e+11
3.587162e+03, 8.218646e+11
3.590749e+03, 1.756604e+12
3.594340e+03, 7.243206e+11
3.597934e+03, 1.762588e+12
3.601532e+03, 2.611122e+12
3.605134e+03, 1.034824e+12
3.608739e+03, 9.524664e+11
3.612348e+03, 1.748020e+12
3.615960e+03, 2.750999e+12
3.619576e+03, 1.101007e+12
3.623196e+03, 2.288043e+12
3.626819e+03, 3.018456e+12
3.630446e+03, 2.106394e+12
3.634076e+03, 1.756018e+12
3.637710e+03, 2.267519e+12
3.641348e+03, 3.448580e+12
3.644989e+03, 1.517710e+12
3.648634e+03, 1.008607e+12
3.652283e+03, 2.326825e+12
3.655935e+03, 2.800729e+12
3.659591e+03, 4.407680e+12
3.663251e+03, 4.450511e+12
3.666914e+03, 4.980322e+12
3.670581e+03, 3.669318e+12
3.674251e+03, 3.871961e+12
3.677926e+03, 3.195798e+12
3.681604e+03, 1.580730e+12
3.685285e+03, 2.866509e+12
3.688971e+03, 2.210886e+12
3.692660e+03, 4.285139e+12
3.696352e+03, 4.130554e+12
3.700049e+03, 4.649373e+12
3.703749e+03, 2.694833e+12
3.707452e+03, 1.029730e+12
3.711160e+03, 2.036214e+12
3.714871e+03, 2.832209e+12
3.718586e+03, 1.177780e+12
3.722304e+03, 4.624913e+11
3.726027e+03, 1.784371e+12
3.729753e+03, 1.533436e+12
3.733482e+03, 1.088815e+12
3.737216e+03, 4.646491e+11
3.740953e+03, 1.341242e+12
3.744694e+03, 1.097343e+12
3.748439e+03, 5.588384e+11
3.752187e+03, 1.404240e+12
3.755939e+03, 2.690095e+12
3.759695e+03, 1.657478e+12
3.763455e+03, 2.315352e+12
3.767219e+03, 1.958803e+12
3.770986e+03, 4.116910e+12
3.774757e+03, 5.140977e+12
3.778532e+03, 4.937962e+12
3.782310e+03, 5.888267e+12
3.786092e+03, 3.937350e+12
3.789878e+03, 2.596494e+12
3.793668e+03, 4.215022e+12
3.797462e+03, 3.008057e+12
3.801259e+03, 2.826513e+12
3.805061e+03, 5.491736e+12
3.808866e+03, 4.231074e+12
3.812675e+03, 4.023196e+12
3.816487e+03, 2.316901e+12
3.820304e+03, 1.671393e+12
3.824124e+03, 1.323792e+12
3.827948e+03, 1.279524e+12
3.831776e+03, 2.418469e+12
3.835608e+03, 2.154376e+12
3.839444e+03, 2.395262e+12
3.843283e+03, 2.902954e+12
3.847126e+03, 4.323019e+12
3.850973e+03, 2.982522e+12
3.854824e+03, 2.884182e+12
3.858679e+03, 9.466747e+11
3.862538e+03, 1.396038e+12
3.866400e+03, 2.748220e+12
3.870267e+03, 4.460223e+12
3.874137e+03, 3.122772e+12
3.878011e+03, 1.938302e+12
3.881889e+03, 3.137535e+12
3.885771e+03, 1.995503e+12
3.889657e+03, 2.282782e+12
3.893547e+03, 4.347125e+12
3.897440e+03, 2.405878e+12
3.901338e+03, 2.428167e+12
3.905239e+03, 3.475389e+12
3.909144e+03, 3.778004e+12
3.913053e+03, 5.931421e+12
3.916966e+03, 4.983219e+12
3.920883e+03, 2.457653e+12
3.924804e+03, 2.310633e+12
3.928729e+03, 2.179309e+12
3.932658e+03, 1.443082e+12
3.936590e+03, 2.121851e+12
3.940527e+03, 3.836090e+12
3.944467e+03, 1.410557e+12
3.948412e+03, 2.682658e+12
3.952360e+03, 4.689620e+12
3.956313e+03, 4.139623e+12
3.960269e+03, 1.983304e+12
3.964229e+03, 1.511798e+12
3.968194e+03, 2.034272e+12
3.972162e+03, 3.297819e+12
3.976134e+03, 5.176016e+12
3.980110e+03, 7.003381e+12
3.984090e+03, 5.489207e+12
3.988074e+03, 8.052966e+12
3.992062e+03, 6.319523e+12
3.996054e+03, 8.366012e+12
4.000050e+03, 5.932563e+12
4.004050e+03, 9.216649e+12
4.008055e+03, 7.020314e+12
4.012063e+03, 7.192621e+12
4.016075e+03, 1.026808e+13
4.020091e+03, 8.616575e+12
4.024111e+03, 7.380196e+12
4.028135e+03, 8.148239e+12
4.032163e+03, 3.114479e+12
4.036195e+03, 4.373876e+12
4.040231e+03, 9.325080e+12
4.044272e+03, 6.747644e+12
4.048316e+03, 4.526413e+12
4.052364e+03, 1.004002e+13
4.056417e+03, 9.410982e+12
4.060473e+03, 8.504634e+12
4.064533e+03, 5.325953e+12
4.068598e+03, 8.772998e+12
4.072667e+03, 6.384608e+12
4.076739e+03, 8.738051e+12
4.080816e+03, 9.145778e+12
4.084897e+03, 9.669891e+12
4.088982e+03, 1.270916e+13
4.093071e+03, 1.011633e+13
4.097164e+03, 7.648371e+12
4.101261e+03, 6.178104e+12
4.105362e+03, 8.085153e+12
4.109468e+03, 7.757770e+12
4.113577e+03, 7.309873e+12
4.117691e+03, 7.347678e+12
4.121808e+03, 7.575933e+12
4.125930e+03, 9.742116e+12
4.130056e+03, 7.543305e+12
4.134186e+03, 5.756125e+12
4.138320e+03, 9.585185e+12
4.142459e+03, 6.993528e+12
4.146601e+03, 6.867642e+12
4.150748e+03, 8.577262e+12
4.154898e+03, 8.544889e+12
4.159053e+03, 9.393564e+12
4.163212e+03, 1.050923e+13
4.167376e+03, 8.049671e+12
4.171543e+03, 7.702065e+12
4.175714e+03, 6.990227e+12
4.179890e+03, 8.762806e+12
4.184070e+03, 8.056291e+12
4.188254e+03, 7.270420e+12
4.192442e+03, 7.696072e+12
4.196635e+03, 7.610131e+12
4.200831e+03, 5.669385e+12
4.205032e+03, 5.548847e+12
4.209237e+03, 5.422624e+12
4.213447e+03, 4.565725e+12
4.217660e+03, 3.285017e+12
4.221878e+03, 2.313368e+12
4.226100e+03, 1.016015e+12
4.230326e+03, 1.228010e+12
4.234556e+03, 2.469932e+12
4.238791e+03, 3.799979e+12
4.243029e+03, 5.047476e+12
4.247272e+03, 6.095138e+12
4.251520e+03, 5.233421e+12
4.255771e+03, 3.280583e+12
4.260027e+03, 6.131027e+12
4.264287e+03, 8.383486e+12
4.268551e+03, 8.294593e+12
4.272820e+03, 5.165537e+12
4.277093e+03, 4.241349e+12
4.281370e+03, 8.167033e+12
4.285651e+03, 6.303862e+12
4.289937e+03, 4.322207e+12
4.294227e+03, 6.766527e+12
4.298521e+03, 7.369988e+12
4.302819e+03, 4.994534e+12
4.307122e+03, 6.067326e+12
4.311429e+03, 8.944082e+12
4.315741e+03, 9.803375e+12
4.320057e+03, 8.643626e+12
4.324377e+03, 9.868500e+12
4.328701e+03, 9.065077e+12
4.333030e+03, 1.254171e+13
4.337363e+03, 1.180985e+13
4.341700e+03, 1.077099e+13
4.346042e+03, 1.112858e+13
4.350388e+03, 1.297354e+13
4.354738e+03, 9.078285e+12
4.359093e+03, 1.169738e+13
4.363452e+03, 1.349859e+13
4.367815e+03, 1.381160e+13
4.372183e+03, 1.242785e+13
4.376555e+03, 9.888659e+12
4.380932e+03, 1.023959e+13
4.385313e+03, 6.204216e+12
4.389698e+03, 1.080221e+13
4.394088e+03, 1.231034e+13
4.398482e+03, 1.288045e+13
4.402881e+03, 1.133955e+13
4.407283e+03, 6.960990e+12
4.411691e+03, 1.220065e+13
4.416102e+03, 1.065222e+13
4.420518e+03, 1.417820e+13
4.424939e+03, 8.999110e+12
4.429364e+03, 9.027134e+12
4.433793e+03, 1.017301e+13
4.438227e+03, 8.436926e+12
4.442665e+03, 1.116468e+13
4.447108e+03, 1.294222e+13
4.451555e+03, 1.189389e+13
4.456007e+03, 6.029511e+12
4.460463e+03, 9.163397e+12
4.464923e+03, 1.028485e+13
4.469388e+03, 1.243152e+13
4.473857e+03, 1.334912e+13
4.478331e+03, 1.375516e+13
4.482810e+03, 1.177378e+13
4.487292e+03, 1.410249e+13
4.491780e+03, 1.316405e+13
4.496272e+03, 1.180817e+13
4.500768e+03, 1.492411e+13
4.505269e+03, 1.494409e+13
4.509774e+03, 1.328178e+13
4.514284e+03, 1.262163e+13
4.518798e+03, 1.336520e+13
4.523317e+03, 1.382882e+13
4.527840e+03, 1.091654e+13
4.532368e+03, 1.123879e+13
4.536900e+03, 9.529212e+12
4.541437e+03, 1.450926e+13
4.545979e+03, 1.344133e+13
4.550525e+03, 1.278988e+13
4.555075e+03, 1.178980e+13
4.559630e+03, 1.512363e+13
4.564190e+03, 1.585218e+13
4.568754e+03, 1.625080e+13
4.573323e+03, 1.464219e+13
4.577896e+03, 1.458411e+13
4.582474e+03, 1.240974e+13
4.587056e+03, 1.060837e+13
4.591643e+03, 1.159028e+13
4.596235e+03, 1.105085e+13
4.600831e+03, 1.205158e+13
4.605432e+03, 1.257878e+13
4.610038e+03, 1.219651e+13
4.614648e+03, 1.467815e+13
4.619262e+03, 1.344776e+13
4.623882e+03, 1.465485e+13
4.628505e+03, 1.102805e+13
4.633134e+03, 1.145934e+13
4.637767e+03, 1.150819e+13
4.642405e+03, 1.184071e+13
4.647047e+03, 1.130672e+13
4.651694e+03, 1.101237e+13
4.656346e+03, 1.219957e+13
4.661002e+03, 1.558162e+13
4.665663e+03, 1.433494e+13
4.670329e+03, 1.061781e+13
4.674999e+03, 1.140439e+13
4.679674e+03, 1.240717e+13
4.684354e+03, 1.070791e+13
4.689038e+03, 1.289778e+13
4.693727e+03, 1.341950e+13
4.698421e+03, 1.345662e+13
4.703120e+03, 1.418160e+13
4.707823e+03, 1.468784e+13
4.712530e+03, 1.326513e+13
4.717243e+03, 1.104609e+13
4.721960e+03, 1.202868e+13
4.726682e+03, 1.315676e+13
4.731409e+03, 1.299278e+13
4.736140e+03, 1.310881e+13
4.740876e+03, 1.302489e+13
4.745617e+03, 1.324827e+13
4.750363e+03, 1.430932e+13
4.755113e+03, 1.311550e+13
4.759868e+03, 1.134832e+13
4.764628e+03, 7.640014e+12
4.769393e+03, 7.723526e+12
4.774162e+03, 8.440736e+12
4.778936e+03, 8.962299e+12
4.783715e+03, 9.355992e+12
4.788499e+03, 9.165073e+12
4.793288e+03, 1.072321e+13
4.798081e+03, 1.239164e+13
4.802879e+03, 1.215849e+13
4.807682e+03, 8.829536e+12
4.812490e+03, 8.759257e+12
4.817302e+03, 9.929857e+12
4.822119e+03, 1.106478e+13
4.826941e+03, 1.068068e+13
4.831768e+03, 1.110031e+13
4.836600e+03, 1.252315e+13
4.841437e+03, 1.222393e+13
4.846278e+03, 1.402136e+13
4.851124e+03, 1.177504e+13
4.855976e+03, 1.226665e+13
4.860832e+03, 1.356116e+13
4.865692e+03, 1.399887e+13
4.870558e+03, 1.399172e+13
4.875429e+03, 1.387037e+13
4.880304e+03, 1.436993e+13
4.885184e+03, 1.546499e+13
4.890070e+03, 1.581729e+13
4.894960e+03, 1.595346e+13
4.899855e+03, 1.620105e+13
4.904754e+03, 1.599644e+13
4.909659e+03, 1.643247e+13
4.914569e+03, 1.709669e+13
4.919483e+03, 1.680810e+13
4.924403e+03, 1.775996e+13
4.929327e+03, 1.793528e+13
4.934257e+03, 1.953646e+13
4.939191e+03, 1.845531e+13
4.944130e+03, 1.820056e+13
4.949074e+03, 1.840144e+13
4.954023e+03, 1.819944e+13
4.958977e+03, 7.506259e+12
4.963936e+03, 8.502209e+12
4.968900e+03, 9.767248e+12
4.973869e+03, 1.024939e+13
4.978843e+03, 1.077527e+13
4.983822e+03, 1.055642e+13
4.988806e+03, 1.193287e+13
4.993794e+03, 1.157156e+13
4.998788e+03, 1.133562e+13
5.003787e+03, 8.919701e+12
5.008791e+03, 8.561852e+12
5.013800e+03, 8.996076e+12
5.018813e+03, 1.017704e+13
5.023832e+03, 9.405178e+12
5.028856e+03, 1.046181e+13
5.033885e+03, 1.310362e+13
5.038919e+03, 1.126128e+13
5.043958e+03, 1.029475e+13
5.049002e+03, 1.231543e+13
5.054051e+03, 1.214610e+13
5.059105e+03, 1.181305e+13
5.064164e+03, 1.133992e+13
5.069228e+03, 1.219006e+13
5.074297e+03, 1.319286e+13
5.079372e+03, 1.252016e+13
5.084451e+03, 1.328295e+13
5.089535e+03, 1.301773e+13
5.094625e+03, 1.301983e+13
5.099720e+03, 1.248761e+13
5.104819e+03, 1.393284e+13
5.109924e+03, 1.298749e+13
5.115034e+03, 1.615431e+13
5.120149e+03, 1.342358e+13
5.125269e+03, 1.349665e+13
5.130394e+03, 1.218508e+13
5.135525e+03, 1.703569e+13
5.140660e+03, 1.554036e+13
5.145801e+03, 1.298293e+13
5.150947e+03, 1.326402e+13
5.156098e+03, 1.222098e+13
5.161254e+03, 2.045153e+13
5.166415e+03, 1.499626e+13
5.171582e+03, 6.198982e+12
5.176753e+03, 7.704929e+12
5.181930e+03, 7.302689e+12
5.187112e+03, 1.009281e+13
5.192299e+03, 1.105760e+13
5.197491e+03, 1.273065e+13
5.202689e+03, 1.286653e+13
5.207891e+03, 7.568570e+12
5.213099e+03, 1.322054e+13
5.218312e+03, 1.838594e+13
5.223531e+03, 1.998883e+13
5.228754e+03, 1.705848e+13
5.233983e+03, 2.129842e+13
5.239217e+03, 2.157272e+13
5.244456e+03, 1.814896e+13
5.249701e+03, 1.732529e+13
5.254950e+03, 2.034809e+13
5.260205e+03, 2.129347e+13
5.265465e+03, 1.357926e+13
5.270731e+03, 1.344715e+13
5.276002e+03, 2.029204e+13
5.281278e+03, 2.227175e+13
5.286559e+03, 2.320640e+13
5.291846e+03, 2.449651e+13
5.297137e+03, 2.135307e+13
5.302435e+03, 2.273439e+13
5.307737e+03, 2.642624e+13
5.313045e+03, 2.329950e+13
5.318358e+03, 2.421062e+13
5.323676e+03, 2.300295e+13
5.329000e+03, 1.633326e+13
5.334329e+03, 2.323896e+13
5.339663e+03, 2.426584e+13
5.345003e+03, 2.195171e+13
5.350348e+03, 2.239094e+13
5.355698e+03, 2.712485e+13
5.361054e+03, 2.436645e+13
5.366415e+03, 2.306112e+13
5.371781e+03, 1.988807e+13
5.377153e+03, 2.529137e+13
5.382530e+03, 2.645096e+13
5.387913e+03, 2.706632e+13
5.393301e+03, 2.494290e+13
5.398694e+03, 2.138691e+13
5.404093e+03, 2.433156e+13
5.409497e+03, 1.980491e+13
5.414906e+03, 2.631036e+13
5.420321e+03, 2.753212e+13
5.425741e+03, 2.604836e+13
5.431167e+03, 2.308983e+13
5.436598e+03, 2.352795e+13
5.442035e+03, 2.803391e+13
5.447477e+03, 2.178788e+13
5.452924e+03, 1.509058e+13
5.458377e+03, 1.519069e+13
5.463836e+03, 1.756679e+13
5.469300e+03, 1.907735e+13
5.474769e+03, 1.955442e+13
5.480244e+03, 1.983013e+13
5.485724e+03, 2.112018e+13
5.491210e+03, 2.195730e+13
5.496701e+03, 2.040301e+13
5.502198e+03, 1.779748e+13
5.507700e+03, 1.881512e+13
5.513207e+03, 1.818462e+13
5.518721e+03, 2.056423e+13
5.524239e+03, 2.258406e+13
5.529764e+03, 2.290166e+13
5.535293e+03, 2.218134e+13
5.540829e+03, 2.408866e+13
5.546370e+03, 2.369222e+13
5.551916e+03, 2.410738e+13
5.557468e+03, 2.543251e+13
5.563025e+03, 2.548636e+13
5.568588e+03, 2.410119e+13
5.574157e+03, 2.471677e+13
5.579731e+03, 2.548023e+13
5.585311e+03, 2.384684e+13
5.590896e+03, 1.960497e+13
5.596487e+03, 2.129558e+13
5.602083e+03, 1.569813e+13
5.607686e+03, 1.996328e+13
5.613293e+03, 2.053654e+13
5.618907e+03, 1.912409e+13
5.624525e+03, 2.090588e+13
5.630150e+03, 1.996345e+13
5.635780e+03, 2.129629e+13
5.641416e+03, 2.070919e+13
5.647057e+03, 2.171340e+13
5.652704e+03, 2.387776e+13
5.658357e+03, 2.409272e+13
5.664015e+03, 2.093741e+13
5.669679e+03, 2.220163e+13
5.675349e+03, 2.263242e+13
5.681024e+03, 2.481185e+13
5.686705e+03, 2.339072e+13
5.692392e+03, 2.511515e+13
5.698085e+03, 2.517535e+13
5.703783e+03, 2.468533e+13
5.709486e+03, 2.499721e+13
5.715196e+03, 2.563084e+13
5.720911e+03, 2.785448e+13
5.726632e+03, 2.683729e+13
5.732359e+03, 2.834544e+13
5.738091e+03, 2.930564e+13
5.743829e+03, 2.975398e+13
5.749573e+03, 3.026214e+13
5.755323e+03, 3.030267e+13
5.761078e+03, 2.650238e+13
5.766839e+03, 2.552029e+13
5.772606e+03, 2.667624e+13
5.778378e+03, 2.766037e+13
5.784157e+03, 2.782115e+13
5.789941e+03, 2.826281e+13
5.795731e+03, 2.996845e+13
5.801527e+03, 3.002805e+13
5.807328e+03, 3.029740e+13
5.813135e+03, 2.665313e+13
5.818949e+03, 2.680526e+13
5.824768e+03, 2.800071e+13
5.830592e+03, 2.830109e+13
5.836423e+03, 2.869004e+13
5.842259e+03, 2.799566e+13
5.848102e+03, 2.664002e+13
5.853950e+03, 2.352844e+13
5.859804e+03, 2.200982e+13
5.865663e+03, 2.112844e+13
5.871529e+03, 2.038022e+13
5.877401e+03, 1.745266e+13
5.883278e+03, 1.487418e+13
5.889161e+03, 8.730703e+12
5.895050e+03, 7.591286e+12
5.900945e+03, 1.077487e+13
5.906846e+03, 1.512322e+13
5.912753e+03, 1.703403e+13
5.918666e+03, 1.811512e+13
5.924585e+03, 1.838836e+13
5.930509e+03, 1.930732e+13
5.936440e+03, 2.079320e+13
5.942376e+03, 2.143253e+13
5.948319e+03, 2.064619e+13
5.954267e+03, 2.077548e+13
5.960221e+03, 2.055142e+13
5.966181e+03, 2.172977e+13
5.972148e+03, 2.228834e+13
5.978120e+03, 2.226468e+13
5.984098e+03, 2.380264e+13
5.990082e+03, 2.494500e+13
5.996072e+03, 2.486226e+13
6.002068e+03, 2.514321e+13
6.008070e+03, 2.459271e+13
6.014078e+03, 2.650720e+13
6.020092e+03, 2.659723e+13
6.026112e+03, 2.787994e+13
6.032139e+03, 2.907307e+13
6.038171e+03, 2.981711e+13
6.044209e+03, 2.944636e+13
6.050253e+03, 3.094273e+13
6.056303e+03, 3.114710e+13
6.062360e+03, 3.152644e+13
6.068422e+03, 3.147546e+13
6.074490e+03, 3.402737e+13
6.080565e+03, 3.428913e+13
6.086645e+03, 3.493257e+13
6.092732e+03, 3.344794e+13
6.098825e+03, 3.397089e+13
6.104924e+03, 2.819002e+13
6.111029e+03, 3.307850e+13
6.117140e+03, 3.519599e+13
6.123257e+03, 2.649117e+13
6.129380e+03, 3.414970e+13
6.135509e+03, 3.503042e+13
6.141645e+03, 3.535297e+13
6.147787e+03, 3.652022e+13
6.153934e+03, 3.191927e+13
6.160088e+03, 2.468638e+13
6.166248e+03, 1.812204e+13
6.172415e+03, 2.156759e+13
6.178587e+03, 2.324487e+13
6.184766e+03, 2.415682e+13
6.190950e+03, 1.942936e+13
6.197141e+03, 2.075382e+13
6.203338e+03, 2.182260e+13
6.209542e+03, 2.348775e+13
6.215751e+03, 1.859078e+13
6.221967e+03, 1.906223e+13
6.228189e+03, 1.652867e+13
6.234417e+03, 1.819903e+13
6.240652e+03, 1.837723e+13
6.246892e+03, 1.889780e+13
6.253139e+03, 2.090375e+13
6.259392e+03, 2.047469e+13
6.265652e+03, 2.215842e+13
6.271917e+03, 2.302750e+13
6.278189e+03, 2.231283e+13
6.284467e+03, 2.321726e+13
6.290752e+03, 2.374406e+13
6.297043e+03, 2.338301e+13
6.303340e+03, 2.506401e+13
6.309643e+03, 2.482628e+13
6.315953e+03, 2.732329e+13
6.322269e+03, 2.569598e+13
6.328591e+03, 2.693937e+13
6.334920e+03, 2.723708e+13
6.341254e+03, 2.915731e+13
6.347596e+03, 3.049871e+13
6.353943e+03, 2.899399e+13
6.360297e+03, 2.514071e+13
6.366658e+03, 2.549196e+13
6.373024e+03, 2.585251e+13
6.379397e+03, 2.420379e+13
6.385777e+03, 2.339282e+13
6.392162e+03, 2.271752e+13
6.398555e+03, 2.582586e+13
6.404953e+03, 2.718187e+13
6.411358e+03, 2.998591e+13
6.417769e+03, 2.852967e+13
6.424187e+03, 2.812690e+13
6.430611e+03, 2.834992e+13
6.437042e+03, 2.905650e+13
6.443479e+03, 2.813203e+13
6.449923e+03, 2.989747e+13
6.456372e+03, 3.125530e+13
6.462829e+03, 2.773114e+13
6.469292e+03, 3.442157e+13
6.475761e+03, 3.446172e+13
6.482237e+03, 3.429208e+13
6.488719e+03, 3.221309e+13
6.495208e+03, 2.853847e+13
6.501703e+03, 3.198103e+13
6.508205e+03, 3.631462e+13
6.514713e+03, 3.617104e+13
6.521227e+03, 3.687614e+13
6.527749e+03, 3.816988e+13
6.534276e+03, 3.859910e+13
6.540811e+03, 4.015170e+13
6.547352e+03, 3.713092e+13
6.553899e+03, 3.577415e+13
6.560453e+03, 3.668819e+13
6.567013e+03, 3.674746e+13
6.573580e+03, 3.437477e+13
6.580154e+03, 3.621727e+13
6.586734e+03, 3.762661e+13
6.593321e+03, 3.692069e+13
6.599914e+03, 3.788789e+13
6.606514e+03, 3.791834e+13
6.613120e+03, 3.639936e+13
6.619734e+03, 3.582533e+13
6.626353e+03, 3.533937e+13
6.632980e+03, 3.580818e+13
6.639613e+03, 3.564213e+13
6.646252e+03, 3.584161e+13
6.652899e+03, 3.010571e+13
6.659551e+03, 2.910639e+13
6.666211e+03, 3.060879e+13
6.672877e+03, 3.193965e+13
6.679550e+03, 2.978434e+13
6.686230e+03, 2.407198e+13
6.692916e+03, 2.695588e+13
6.699609e+03, 2.779097e+13
6.706308e+03, 2.645622e+13
6.713015e+03, 2.593472e+13
6.719728e+03, 2.082975e+13
6.726447e+03, 2.167888e+13
6.733174e+03, 2.302109e+13
6.739907e+03, 2.348226e+13
6.746647e+03, 2.326459e+13
6.753394e+03, 2.147209e+13
6.760147e+03, 2.276661e+13
6.766907e+03, 2.439819e+13
6.773674e+03, 2.598280e+13
6.780448e+03, 2.423903e+13
6.787228e+03, 2.095352e+13
6.794015e+03, 2.192671e+13
6.800809e+03, 2.291092e+13
6.807610e+03, 2.376561e+13
6.814418e+03, 2.385026e+13
6.821232e+03, 2.349792e+13
6.828053e+03, 2.361202e+13
6.834882e+03, 2.401681e+13
6.841716e+03, 2.377113e+13
6.848558e+03, 2.421655e+13
6.855407e+03, 2.174239e+13
6.862262e+03, 2.117899e+13
6.869124e+03, 2.300898e+13
6.875994e+03, 2.414452e+13
6.882869e+03, 2.409634e+13
6.889752e+03, 2.341482e+13
6.896642e+03, 2.535900e+13
6.903539e+03, 2.497119e+13
6.910442e+03, 2.767270e+13
6.917353e+03, 2.662828e+13
6.924270e+03, 2.872241e+13
6.931194e+03, 3.030479e+13
6.938126e+03, 3.052956e+13
6.945064e+03, 3.273667e+13
6.952009e+03, 3.408148e+13
6.958961e+03, 3.382771e+13
6.965920e+03, 3.507477e+13
6.972886e+03, 3.533533e+13
6.979859e+03, 3.442839e+13
6.986838e+03, 3.810004e+13
6.993825e+03, 3.493994e+13
7.000819e+03, 3.673397e+13
7.007820e+03, 3.767657e+13
7.014828e+03, 3.885037e+13
7.021843e+03, 3.962157e+13
7.028864e+03, 4.458467e+13
7.035893e+03, 4.127798e+13
7.042929e+03, 4.877546e+13
7.049972e+03, 5.166632e+13
7.057022e+03, 3.699050e+13
7.064079e+03, 3.080543e+13
7.071143e+03, 3.557632e+13
7.078214e+03, 3.706475e+13
7.085292e+03, 3.798819e+13
7.092378e+03, 2.458856e+13
7.099470e+03, 2.645603e+13
7.106570e+03, 2.943617e+13
7.113676e+03, 3.098505e+13
7.120790e+03, 3.431543e+13
7.127911e+03, 2.442530e+13
7.135039e+03, 2.142911e+13
7.142174e+03, 2.300284e+13
7.149316e+03, 2.317374e+13
7.156465e+03, 2.761972e+13
7.163622e+03, 2.519763e+13
7.170785e+03, 2.739302e+13
7.177956e+03, 2.990233e+13
7.185134e+03, 3.159422e+13
7.192319e+03, 3.259185e+13
7.199511e+03, 3.016407e+13
7.206711e+03, 2.866915e+13
7.213918e+03, 3.032452e+13
7.221132e+03, 3.308806e+13
7.228353e+03, 3.482139e+13
7.235581e+03, 3.579853e+13
7.242817e+03, 3.681945e+13
7.250059e+03, 3.910527e+13
7.257309e+03, 4.084945e+13
7.264567e+03, 4.234138e+13
7.271831e+03, 4.131757e+13
7.279103e+03, 4.297620e+13
7.286382e+03, 4.440567e+13
7.293669e+03, 4.512857e+13
7.300962e+03, 4.734458e+13
7.308263e+03, 4.749306e+13
7.315572e+03, 4.901339e+13
7.322887e+03, 4.979222e+13
7.330210e+03, 4.678009e+13
7.337540e+03, 5.174136e+13
7.344878e+03, 5.144046e+13
7.352223e+03, 5.235671e+13
7.359575e+03, 5.168884e+13
7.366934e+03, 5.335854e+13
7.374301e+03, 5.534230e+13
7.381676e+03, 5.546703e+13
7.389057e+03, 5.556573e+13
7.396446e+03, 5.643263e+13
7.403843e+03, 5.544360e+13
7.411247e+03, 5.714831e+13
7.418658e+03, 5.636963e+13
7.426077e+03, 5.612151e+13
7.433503e+03, 5.763196e+13
7.440936e+03, 5.787734e+13
7.448377e+03, 5.679825e+13
7.455825e+03, 5.818515e+13
7.463281e+03, 5.674367e+13
7.470745e+03, 5.868506e+13
7.478215e+03, 5.923210e+13
7.485694e+03, 5.841762e+13
7.493179e+03, 5.783553e+13
7.500672e+03, 5.822017e+13
7.508173e+03, 5.897386e+13
7.515681e+03, 5.878182e+13
7.523197e+03, 5.963748e+13
7.530720e+03, 5.862291e+13
7.538251e+03, 5.962225e+13
7.545789e+03, 6.058990e+13
7.553335e+03, 6.031738e+13
7.560888e+03, 6.081438e+13
7.568449e+03, 6.003371e+13
7.576018e+03, 5.926575e+13
7.583594e+03, 6.080167e+13
7.591177e+03, 5.442811e+13
7.598768e+03, 5.464416e+13
7.606367e+03, 5.442574e+13
7.613973e+03, 5.428709e+13
7.621587e+03, 5.665730e+13
7.629209e+03, 5.215022e+13
7.636838e+03, 5.079336e+13
7.644475e+03, 5.115681e+13
7.652120e+03, 5.143308e+13
7.659772e+03, 5.132639e+13
7.667431e+03, 3.581395e+13
7.675099e+03, 4.335802e+13
7.682774e+03, 4.448274e+13
7.690457e+03, 4.572747e+13
7.698147e+03, 3.965941e+13
7.705845e+03, 4.365402e+13
7.713551e+03, 4.537852e+13
7.721265e+03, 4.661823e+13
7.728986e+03, 4.815714e+13
7.736715e+03, 5.013532e+13
7.744452e+03, 4.860704e+13
7.752196e+03, 4.405303e+13
7.759948e+03, 4.594399e+13
7.767708e+03, 4.627727e+13
7.775476e+03, 4.797433e+13
7.783252e+03, 4.646352e+13
7.791035e+03, 4.671276e+13
7.798826e+03, 4.766141e+13
7.806625e+03, 5.008585e+13
7.814431e+03, 5.118636e+13
7.822246e+03, 5.018710e+13
7.830068e+03, 4.833784e+13
7.837898e+03, 4.822466e+13
7.845736e+03, 4.825315e+13
7.853582e+03, 5.042026e+13
7.861435e+03, 5.122384e+13
7.869297e+03, 5.113884e+13
7.877166e+03, 5.256025e+13
7.885043e+03, 5.349748e+13
7.892928e+03, 5.393227e+13
7.900821e+03, 5.455687e+13
7.908722e+03, 5.333607e+13
7.916631e+03, 5.277359e+13
7.924547e+03, 5.390573e+13
7.932472e+03, 5.505025e+13
7.940404e+03, 5.449930e+13
7.948345e+03, 5.438467e+13
7.956293e+03, 5.655072e+13
7.964249e+03, 5.733169e+13
7.972214e+03, 5.812303e+13
7.980186e+03, 5.744568e+13
7.988166e+03, 5.736004e+13
7.996154e+03, 5.786980e+13
8.004150e+03, 5.777285e+13
8.012154e+03, 5.899202e+13
8.020167e+03, 5.956994e+13
8.028187e+03, 5.883450e+13
8.036215e+03, 6.003742e+13
8.044251e+03, 6.009598e+13
8.052295e+03, 5.962292e+13
8.060348e+03, 6.089534e+13
8.068408e+03, 5.987392e+13
8.076476e+03, 6.017374e+13
8.084553e+03, 6.111154e+13
8.092637e+03, 6.151681e+13
8.100730e+03, 6.226564e+13
8.108831e+03, 6.246554e+13
8.116940e+03, 6.080187e+13
8.125057e+03, 6.135901e+13
8.133182e+03, 6.315340e+13
8.141315e+03, 6.320464e+13
8.149456e+03, 6.367268e+13
8.157606e+03, 6.369679e+13
8.165763e+03, 6.265521e+13
8.173929e+03, 6.326193e+13
8.182103e+03, 5.458581e+13
8.190285e+03, 5.795462e+13
8.198475e+03, 4.797114e+13
8.206674e+03, 5.928823e+13
8.214880e+03, 6.088098e+13
8.223095e+03, 6.058658e+13
8.231318e+03, 6.200450e+13
8.239550e+03, 6.221301e+13
8.247789e+03, 6.228333e+13
8.256037e+03, 6.140883e+13
8.264293e+03, 6.257771e+13
8.272557e+03, 6.097113e+13
8.280830e+03, 6.075738e+13
8.289111e+03, 6.035932e+13
8.297400e+03, 6.037967e+13
8.305697e+03, 5.966579e+13
8.314003e+03, 6.047566e+13
8.322317e+03, 6.084465e+13
8.330639e+03, 5.821922e+13
8.338970e+03, 5.987402e+13
8.347309e+03, 5.974167e+13
8.355656e+03, 5.955147e+13
8.364012e+03, 5.872973e+13
8.372376e+03, 6.042273e+13
8.380748e+03, 5.774548e+13
8.389129e+03, 5.523477e+13
8.397518e+03, 5.905883e+13
8.405916e+03, 6.047855e+13
8.414322e+03, 5.908461e+13
8.422736e+03, 5.918879e+13
8.431159e+03, 5.761978e+13
8.439590e+03, 5.182146e+13
8.448029e+03, 5.422742e+13
8.456477e+03, 5.139046e+13
8.464934e+03, 5.268930e+13
8.473399e+03, 5.059523e+13
8.481872e+03, 5.347897e+13
8.490354e+03, 5.423662e+13
8.498845e+03, 5.160885e+13
8.507343e+03, 5.365394e+13
8.515851e+03, 5.246713e+13
8.524367e+03, 5.338359e+13
8.532891e+03, 5.393681e+13
8.541424e+03, 4.957691e+13
8.549965e+03, 5.418981e+13
8.558515e+03, 5.613205e+13
8.567074e+03, 5.666638e+13
8.575641e+03, 5.664638e+13
8.584216e+03, 5.678769e+13
8.592801e+03, 5.729389e+13
8.601393e+03, 5.766638e+13
8.609995e+03, 5.754506e+13
8.618605e+03, 5.846495e+13
8.627223e+03, 5.901328e+13
8.635851e+03, 5.913571e+13
8.644486e+03, 5.961315e+13
8.653131e+03, 5.929045e+13
8.661784e+03, 5.353116e+13
8.670446e+03, 5.924722e+13
8.679116e+03, 5.824704e+13
8.687795e+03, 5.608294e+13
8.696483e+03, 5.814563e+13
8.705180e+03, 5.921291e+13
8.713885e+03, 5.883912e+13
8.722599e+03, 5.923873e+13
8.731321e+03, 6.062136e+13
8.740053e+03, 5.885084e+13
8.748793e+03, 6.052842e+13
8.757542e+03, 6.013710e+13
8.766299e+03, 6.019246e+13
8.775065e+03, 6.125910e+13
8.783840e+03, 6.114442e+13
8.792624e+03, 6.178672e+13
8.801417e+03, 6.074894e+13
8.810218e+03, 5.850389e+13
8.819029e+03, 6.295761e+13
8.827848e+03, 5.863953e+13
8.836675e+03, 6.252283e+13
8.845512e+03, 6.231380e+13
8.854358e+03, 6.302367e+13
8.863212e+03, 5.591512e+13
8.872075e+03, 5.437416e+13
8.880947e+03, 5.546257e+13
8.889828e+03, 5.593686e+13
8.898718e+03, 5.652042e+13
8.907617e+03, 5.810256e+13
8.916524e+03, 5.812321e+13
8.925441e+03, 5.821184e+13
8.934366e+03, 5.787838e+13
8.943301e+03, 5.703107e+13
8.952244e+03, 5.700681e+13
8.961196e+03, 5.778040e+13
8.970157e+03, 5.793086e+13
8.979128e+03, 5.777542e+13
8.988107e+03, 5.931816e+13
8.997095e+03, 5.979750e+13
9.006092e+03, 5.869174e+13
9.015098e+03, 5.767954e+13
9.024113e+03, 5.789238e+13
9.033137e+03, 5.862486e+13
9.042170e+03, 5.979587e+13
9.051213e+03, 5.979780e+13
9.060264e+03, 5.900548e+13
9.069324e+03, 5.997239e+13
9.078393e+03, 6.041529e+13
9.087472e+03, 5.823937e+13
9.096559e+03, 6.029226e+13
9.105656e+03, 6.041308e+13
9.114761e+03, 6.162891e+13
9.123876e+03, 6.095057e+13
9.133000e+03, 6.164267e+13
9.142133e+03, 6.136280e+13
9.151275e+03, 6.107124e+13
9.160426e+03, 6.220699e+13
9.169587e+03, 6.228998e+13
9.178757e+03, 6.114645e+13
9.187935e+03, 6.289860e+13
9.197123e+03, 6.263990e+13
9.206320e+03, 6.163608e+13
9.215527e+03, 6.151506e+13
9.224742e+03, 6.026774e+13
9.233967e+03, 5.938775e+13
9.243201e+03, 6.110512e+13
9.252444e+03, 5.983326e+13
9.261697e+03, 6.014386e+13
9.270958e+03, 6.077720e+13
9.280229e+03, 5.983345e+13
9.289509e+03, 5.982787e+13
9.298799e+03, 5.876865e+13
9.308098e+03, 5.941920e+13
9.317406e+03, 5.950917e+13
9.326723e+03, 5.888729e+13
9.336050e+03, 5.980871e+13
9.345386e+03, 5.994374e+13
9.354731e+03, 5.908341e+13
9.364086e+03, 5.853089e+13
9.373450e+03, 5.923903e+13
9.382824e+03, 5.932004e+13
9.392206e+03, 5.910732e+13
9.401599e+03, 5.886395e+13
9.411000e+03, 5.996940e+13
9.420411e+03, 5.937652e+13
9.429832e+03, 6.028755e+13
9.439262e+03, 5.989291e+13
9.448701e+03, 5.905113e+13
9.458149e+03, 6.013505e+13
9.467608e+03, 5.934306e+13
9.477075e+03, 6.079599e+13
9.486552e+03, 6.035736e+13
9.496039e+03, 6.029302e+13
9.505535e+03, 6.047454e+13
9.515040e+03, 6.004447e+13
9.524555e+03, 6.098917e+13
9.534080e+03, 6.068447e+13
9.543614e+03, 6.034970e+13
9.553158e+03, 5.951116e+13
9.562711e+03, 6.056479e+13
9.572274e+03, 6.075879e+13
9.581846e+03, 6.127828e+13
9.591428e+03, 6.128156e+13
9.601019e+03, 5.860137e+13
9.610620e+03, 6.096404e+13
9.620231e+03, 6.127920e+13
9.629851e+03, 6.129313e+13
9.639481e+03, 5.739773e+13
9.649120e+03, 5.921799e+13
9.658769e+03, 6.012261e+13
9.668428e+03, 6.045301e+13
9.678097e+03, 5.808483e+13
9.687775e+03, 5.933974e+13
9.697463e+03, 6.113625e+13
9.707160e+03, 5.814173e+13
9.716867e+03, 6.025354e+13
9.726584e+03, 5.820041e+13
9.736311e+03, 5.972999e+13
9.746047e+03, 5.788578e+13
9.755793e+03, 6.015714e+13
9.765549e+03, 6.063220e+13
9.775314e+03, 5.846535e+13
9.785090e+03, 5.736013e+13
9.794875e+03, 5.855184e+13
9.804670e+03, 6.051349e+13
9.814474e+03, 5.978355e+13
9.824289e+03, 5.973113e+13
9.834113e+03, 5.896266e+13
9.843947e+03, 5.959850e+13
9.853791e+03, 6.012284e+13
9.863645e+03, 5.973481e+13
9.873509e+03, 5.980580e+13
9.883382e+03, 6.063672e+13
9.893265e+03, 6.001603e+13
9.903159e+03, 5.021024e+13
9.913062e+03, 4.679124e+13
9.922975e+03, 4.999435e+13
9.932898e+03, 5.209239e+13
9.942831e+03, 5.636100e+13
9.952774e+03, 5.717614e+13
9.962726e+03, 5.599203e+13
9.972689e+03, 5.624633e+13
9.982662e+03, 5.662858e+13
9.992644e+03, 5.607991e+13
1.000264e+04, 5.628123e+13
1.001264e+04, 5.621411e+13
1.002265e+04, 5.722864e+13
1.003268e+04, 5.692907e+13
1.004271e+04, 5.713808e+13
1.005275e+04, 5.500995e+13
1.006280e+04, 5.328225e+13
1.007287e+04, 5.731727e+13
1.008294e+04, 5.797261e+13
1.009302e+04, 5.680699e+13
1.010311e+04, 5.828107e+13
1.011322e+04, 5.707616e+13
1.012333e+04, 5.708640e+13
1.013345e+04, 5.769655e+13
1.014359e+04, 5.670073e+13
1.015373e+04, 5.621326e+13
1.016389e+04, 5.428753e+13
1.017405e+04, 5.640233e+13
1.018422e+04, 5.401364e+13
1.019441e+04, 5.650771e+13
1.020460e+04, 5.519369e+13
1.021481e+04, 5.643720e+13
1.022502e+04, 5.481480e+13
1.023525e+04, 5.600374e+13
1.024548e+04, 5.787682e+13
1.025573e+04, 5.389577e+13
1.026598e+04, 5.277738e+13
1.027625e+04, 5.393117e+13
1.028652e+04, 5.339312e+13
1.029681e+04, 5.407352e+13
1.030711e+04, 5.511491e+13
1.031742e+04, 5.546860e+13
1.032773e+04, 5.513551e+13
1.033806e+04, 5.450948e+13
1.034840e+04, 5.083783e+13
1.035875e+04, 5.672956e+13
1.036911e+04, 5.583679e+13
1.037947e+04, 5.606843e+13
1.038985e+04, 5.695773e+13
1.040024e+04, 5.458351e+13
1.041064e+04, 5.708857e+13
1.042106e+04, 5.585340e+13
1.043148e+04, 5.518987e+13
1.044191e+04, 5.711697e+13
1.045235e+04, 5.707811e+13
1.046280e+04, 5.730967e+13
1.047326e+04, 5.538611e+13
1.048374e+04, 5.626148e+13
1.049422e+04, 5.600417e+13
1.050472e+04, 5.739163e+13
1.051522e+04, 5.574507e+13
1.052574e+04, 5.569583e+13
1.053626e+04, 5.748799e+13
1.054680e+04, 5.649799e+13
1.055734e+04, 5.595167e+13
1.056790e+04, 5.676127e+13
1.057847e+04, 5.655482e+13
1.058905e+04, 5.557446e+13
1.059964e+04, 5.717985e+13
1.061024e+04, 5.568844e+13
1.062085e+04, 5.670055e+13
1.063147e+04, 5.698842e+13
1.064210e+04, 5.647240e+13
1.065274e+04, 5.588526e+13
1.066339e+04, 5.491208e+13
1.067406e+04, 5.555731e+13
1.068473e+04, 5.529715e+13
1.069542e+04, 5.615205e+13
1.070611e+04, 5.531603e+13
1.071682e+04, 5.628262e+13
1.072753e+04, 5.494478e+13
1.073826e+04, 5.545801e+13
1.074900e+04, 5.544865e+13
1.075975e+04, 5.610433e+13
1.077051e+04, 5.610625e+13
1.078128e+04, 5.621946e+13
1.079206e+04, 5.565797e+13
1.080285e+04, 5.557424e+13
1.081366e+04, 5.468668e+13
1.082447e+04, 5.596091e+13
1.083529e+04, 5.525325e+13
1.084613e+04, 5.567925e+13
1.085698e+04, 5.524861e+13
1.086783e+04, 5.549224e+13
1.087870e+04, 5.638446e+13
1.088958e+04, 5.521616e+13
1.090047e+04, 5.634170e+13
1.091137e+04, 5.510389e+13
1.092228e+04, 5.516874e+13
1.093320e+04, 5.575640e+13
1.094414e+04, 5.636927e+13
1.095508e+04, 5.549089e+13
1.096604e+04, 5.532860e+13
1.097700e+04, 5.460085e+13
1.098798e+04, 5.510827e+13
1.099897e+04, 5.546581e+13
1.100997e+04, 5.558515e+13
1.102098e+04, 5.418155e+13
1.103200e+04, 5.481038e+13
1.104303e+04, 5.474513e+13
1.105407e+04, 5.410154e+13
1.106513e+04, 5.447450e+13
1.107619e+04, 5.493199e+13
1.108727e+04, 5.454181e+13
1.109835e+04, 5.431666e+13
1.110945e+04, 5.453248e+13
1.112056e+04, 5.362221e+13
1.113168e+04, 5.453135e+13
1.114281e+04, 5.503441e+13
1.115396e+04, 5.407947e+13
1.116511e+04, 5.448381e+13
1.117628e+04, 5.428533e+13
1.118745e+04, 5.471909e+13
1.119864e+04, 5.392548e+13
1.120984e+04, 5.406097e+13
1.122105e+04, 5.401820e+13
1.123227e+04, 5.467403e+13
1.124350e+04, 5.430747e+13
1.125474e+04, 5.185884e+13
1.126600e+04, 5.463971e+13
1.127727e+04, 5.363146e+13
1.128854e+04, 5.401865e+13
1.129983e+04, 5.335762e+13
1.131113e+04, 5.428344e+13
1.132244e+04, 5.432680e+13
1.133376e+04, 5.405463e+13
1.134510e+04, 5.388696e+13
1.135644e+04, 5.351021e+13
1.136780e+04, 5.362044e+13
1.137917e+04, 4.967516e+13
1.139055e+04, 5.153046e+13
1.140194e+04, 4.848066e+13
1.141334e+04, 5.187426e+13
1.142475e+04, 5.279058e+13
1.143618e+04, 5.363768e+13
1.144761e+04, 5.276988e+13
1.145906e+04, 5.322722e+13
1.147052e+04, 5.327062e+13
1.148199e+04, 5.288279e+13
1.149347e+04, 5.332416e+13
1.150497e+04, 5.353375e+13
1.151647e+04, 5.365803e+13
1.152799e+04, 5.364877e+13
1.153952e+04, 5.322846e+13
1.155106e+04, 5.294567e+13
1.156261e+04, 5.306668e+13
1.157417e+04, 5.318213e+13
1.158574e+04, 5.323594e+13
1.159733e+04, 5.226572e+13
1.160893e+04, 5.040493e+13
1.162054e+04, 5.309212e+13
1.163216e+04, 5.294506e+13
1.164379e+04, 5.157645e+13
1.165543e+04, 5.261885e+13
1.166709e+04, 5.293104e+13
1.167875e+04, 5.268957e+13
1.169043e+04, 4.976196e+13
1.170212e+04, 5.268235e+13
1.171383e+04, 5.252447e+13
1.172554e+04, 5.286060e+13
1.173726e+04, 5.226303e+13
1.174900e+04, 5.237041e+13
1.176075e+04, 5.235230e+13
1.177251e+04, 4.799012e+13
1.178428e+04, 5.070380e+13
1.179607e+04, 5.150024e+13
1.180786e+04, 5.214702e+13
1.181967e+04, 5.218372e+13
1.183149e+04, 4.979439e+13
1.184332e+04, 5.205233e+13
1.185517e+04, 5.172053e+13
1.186702e+04, 5.191875e+13
1.187889e+04, 5.183745e+13
1.189077e+04, 4.784787e+13
1.190266e+04, 5.187390e+13
1.191456e+04, 5.142297e+13
1.192648e+04, 5.180980e+13
1.193840e+04, 5.116162e+13
1.195034e+04, 5.042874e+13
1.196229e+04, 5.019605e+13
1.197425e+04, 4.753729e+13
1.198623e+04, 5.058357e+13
1.199821e+04, 5.035414e+13
1.201021e+04, 5.056663e+13
1.202222e+04, 5.066446e+13
1.203424e+04, 5.020596e+13
1.204628e+04, 5.057773e+13
1.205833e+04, 5.103900e+13
1.207038e+04, 5.031186e+13
1.208245e+04, 5.011562e+13
1.209454e+04, 5.023595e+13
1.210663e+04, 5.008267e+13
1.211874e+04, 5.008281e+13
1.213086e+04, 5.031676e+13
1.214299e+04, 5.061456e+13
1.215513e+04, 5.060413e+13
1.216729e+04, 5.034080e+13
1.217945e+04, 5.056541e+13
1.219163e+04, 5.030025e+13
1.220382e+04, 4.977697e+13
1.221603e+04, 5.006486e+13
1.222824e+04, 5.017908e+13
1.224047e+04, 4.983266e+13
1.225271e+04, 5.020975e+13
1.226497e+04, 5.021160e+13
1.227723e+04, 4.992899e+13
1.228951e+04, 5.002734e+13
1.230180e+04, 4.982310e+13
1.231410e+04, 4.971153e+13
1.232641e+04, 4.933103e+13
1.233874e+04, 4.958706e+13
1.235108e+04, 4.968338e+13
1.236343e+04, 4.932863e+13
1.237579e+04, 4.963410e+13
1.238817e+04, 4.905256e+13
1.240056e+04, 4.921029e+13
1.241296e+04, 4.823758e+13
1.242537e+04, 4.794963e+13
1.243780e+04, 4.700260e+13
1.245023e+04, 4.883251e+13
1.246268e+04, 4.864546e+13
1.247515e+04, 4.833743e+13
1.248762e+04, 4.879571e+13
1.250011e+04, 4.831051e+13
1.251261e+04, 4.842072e+13
1.252512e+04, 4.594654e+13
1.253765e+04, 4.856327e+13
1.255018e+04, 4.809513e+13
1.256273e+04, 4.811143e+13
1.257530e+04, 4.816489e+13
1.258787e+04, 4.828577e+13
1.260046e+04, 4.790574e+13
1.261306e+04, 4.809146e+13
1.262567e+04, 4.804696e+13
1.263830e+04, 4.745761e+13
1.265094e+04, 4.812151e+13
1.266359e+04, 4.789018e+13
1.267625e+04, 4.702314e+13
1.268893e+04, 4.727369e+13
1.270162e+04, 4.774407e+13
1.271432e+04, 4.776796e+13
1.272703e+04, 4.812049e+13
1.273976e+04, 4.714088e+13
1.275250e+04, 4.731190e+13
1.276525e+04, 4.769013e+13
1.277802e+04, 4.746381e+13
1.279080e+04, 4.768928e+13
1.280359e+04, 4.747339e+13
1.281639e+04, 4.666897e+13
1.282921e+04, 4.529704e+13
1.284204e+04, 4.723216e+13
1.285488e+04, 4.646130e+13
1.286773e+04, 4.676728e+13
1.288060e+04, 4.641180e+13
1.289348e+04, 4.660695e+13
1.290637e+04, 4.504585e+13
1.291928e+04, 4.609053e+13
1.293220e+04, 4.626743e+13
1.294513e+04, 4.616042e+13
1.295808e+04, 4.686198e+13
1.297104e+04, 4.666341e+13
1.298401e+04, 4.629583e+13
1.299699e+04, 4.622658e+13
1.300999e+04, 4.595669e+13
1.302300e+04, 4.667809e+13
1.303602e+04, 4.579488e+13
1.304906e+04, 4.638378e+13
1.306211e+04, 4.618303e+13
1.307517e+04, 4.584068e+13
1.308824e+04, 4.582633e+13
1.310133e+04, 4.592487e+13
1.311443e+04, 4.589492e+13
1.312755e+04, 4.229344e+13
1.314067e+04, 4.471394e+13
1.315382e+04, 4.307624e+13
1.316697e+04, 4.584264e+13
1.318014e+04, 4.587124e+13
1.319332e+04, 4.600328e+13
1.320651e+04, 4.519571e+13
1.321972e+04, 4.514694e+13
1.323294e+04, 4.547903e+13
1.324617e+04, 4.535953e+13
1.325941e+04, 4.507321e+13
1.327267e+04, 4.467393e+13
1.328595e+04, 4.462267e+13
1.329923e+04, 4.406996e+13
1.331253e+04, 4.429870e+13
1.332584e+04, 4.271564e+13
1.333917e+04, 4.403275e+13
1.335251e+04, 4.146725e+13
1.336586e+04, 4.251566e+13
1.337923e+04, 4.198675e+13
1.339261e+04, 4.276244e+13
1.340600e+04, 4.256911e+13
1.341941e+04, 4.203702e+13
1.343283e+04, 4.183525e+13
1.344626e+04, 4.194174e+13
1.345970e+04, 4.252316e+13
1.347316e+04, 4.188984e+13
1.348664e+04, 4.224502e+13
1.350012e+04, 4.162562e+13
1.351362e+04, 4.206900e+13
1.352714e+04, 4.211223e+13
1.354066e+04, 4.157760e+13
1.355421e+04, 4.168174e+13
1.356776e+04, 4.220302e+13
1.358133e+04, 4.161961e+13
1.359491e+04, 4.174089e+13
1.360850e+04, 4.162729e+13
1.362211e+04, 4.100771e+13
1.363573e+04, 4.105241e+13
1.364937e+04, 4.114562e+13
1.366302e+04, 4.167848e+13
1.367668e+04, 4.176250e+13
1.369036e+04, 4.129480e+13
1.370405e+04, 4.172593e+13
1.371775e+04, 4.163180e+13
1.373147e+04, 4.156776e+13
1.374520e+04, 4.167416e+13
1.375895e+04, 4.173753e+13
1.377271e+04, 4.158055e+13
1.378648e+04, 4.125010e+13
1.380027e+04, 4.170977e+13
1.381407e+04, 4.176522e+13
1.382788e+04, 4.094646e+13
1.384171e+04, 4.142046e+13
1.385555e+04, 4.073678e+13
1.386941e+04, 4.081594e+13
1.388327e+04, 4.027657e+13
1.389716e+04, 4.056437e+13
1.391106e+04, 3.719450e+13
1.392497e+04, 3.810875e+13
1.393889e+04, 3.837271e+13
1.395283e+04, 3.900065e+13
1.396678e+04, 3.977059e+13
1.398075e+04, 3.819477e+13
1.399473e+04, 3.888621e+13
1.400873e+04, 3.879868e+13
1.402273e+04, 3.936167e+13
1.403676e+04, 3.984987e+13
1.405079e+04, 3.884483e+13
1.406484e+04, 3.918520e+13
1.407891e+04, 3.910967e+13
1.409299e+04, 3.864093e+13
1.410708e+04, 3.874794e+13
1.412119e+04, 3.818215e+13
1.413531e+04, 3.830713e+13
1.414944e+04, 3.876333e+13
1.416359e+04, 3.841888e+13
1.417776e+04, 3.793933e+13
1.419194e+04, 3.771376e+13
1.420613e+04, 3.886210e+13
1.422033e+04, 3.814945e+13
1.423455e+04, 3.764999e+13
1.424879e+04, 3.832766e+13
1.426304e+04, 3.761692e+13
1.427730e+04, 3.798610e+13
1.429158e+04, 3.740526e+13
1.430587e+04, 3.839482e+13
1.432018e+04, 3.817035e+13
1.433450e+04, 3.778385e+13
1.434883e+04, 3.728269e+13
1.436318e+04, 3.732177e+13
1.437754e+04, 3.783393e+13
1.439192e+04, 3.738761e+13
1.440631e+04, 3.727515e+13
1.442072e+04, 3.760551e+13
1.443514e+04, 3.819658e+13
1.444957e+04, 3.707667e+13
1.446402e+04, 3.747523e+13
1.447849e+04, 3.772727e+13
1.449297e+04, 3.766971e+13
1.450746e+04, 3.691604e+13
1.452197e+04, 3.739493e+13
1.453649e+04, 3.753293e+13
1.455102e+04, 3.775229e+13
1.456558e+04, 3.580844e+13
1.458014e+04, 3.770417e+13
1.459472e+04, 3.761270e+13
1.460932e+04, 3.437499e+13
1.462393e+04, 3.468811e+13
1.463855e+04, 3.618925e+13
1.465319e+04, 3.628199e+13
1.466784e+04, 3.572400e+13
1.468251e+04, 3.540537e+13
1.469719e+04, 3.496330e+13
1.471189e+04, 3.573280e+13
1.472660e+04, 3.672411e+13
1.474133e+04, 3.586242e+13
1.475607e+04, 3.569789e+13
1.477082e+04, 3.526016e+13
1.478560e+04, 3.575582e+13
1.480038e+04, 3.483238e+13
1.481518e+04, 3.576577e+13
1.483000e+04, 3.614187e+13
1.484483e+04, 3.606600e+13
1.485967e+04, 3.598288e+13
1.487453e+04, 3.541817e+13
1.488941e+04, 3.425783e+13
1.490429e+04, 3.511655e+13
1.491920e+04, 3.638087e+13
1.493412e+04, 3.593274e+13
1.494905e+04, 3.603948e+13
1.496400e+04, 3.612456e+13
1.497897e+04, 3.627525e+13
1.499394e+04, 3.617404e+13
1.500894e+04, 3.484218e+13
1.502395e+04, 3.315741e+13
1.503897e+04, 3.465097e+13
1.505401e+04, 3.432377e+13
1.506906e+04, 3.561425e+13
1.508413e+04, 3.527878e+13
1.509922e+04, 3.605417e+13
1.511432e+04, 3.563911e+13
1.512943e+04, 3.486324e+13
1.514456e+04, 3.497537e+13
1.515970e+04, 3.512535e+13
1.517486e+04, 3.417635e+13
1.519004e+04, 3.573155e+13
1.520523e+04, 3.558111e+13
1.522043e+04, 3.597389e+13
1.523566e+04, 3.565520e+13
1.525089e+04, 3.547130e+13
1.526614e+04, 3.429291e+13
1.528141e+04, 3.399208e+13
1.529669e+04, 3.555870e+13
1.531199e+04, 3.578754e+13
1.532730e+04, 3.422223e+13
1.534263e+04, 3.498465e+13
1.535797e+04, 3.573547e+13
1.537333e+04, 3.385058e+13
1.538870e+04, 3.380753e+13
1.540409e+04, 3.342878e+13
1.541949e+04, 3.353673e+13
1.543491e+04, 3.344650e+13
1.545035e+04, 3.550683e+13
1.546580e+04, 3.467248e+13
1.548126e+04, 3.468174e+13
1.549674e+04, 3.477804e+13
1.551224e+04, 3.388006e+13
1.552775e+04, 3.555053e+13
1.554328e+04, 3.303323e+13
1.555882e+04, 3.392432e+13
1.557438e+04, 3.337543e+13
1.558996e+04, 3.482672e+13
1.560555e+04, 3.458587e+13
1.562115e+04, 3.470360e+13
1.563677e+04, 3.424051e+13
1.565241e+04, 3.346594e+13
1.566806e+04, 3.509708e+13
1.568373e+04, 3.496260e+13
1.569941e+04, 3.441294e+13
1.571511e+04, 3.401762e+13
1.573083e+04, 3.317601e+13
1.574656e+04, 3.399255e+13
1.576231e+04, 3.311502e+13
1.577807e+04, 3.295640e+13
1.579385e+04, 3.503976e+13
1.580964e+04, 3.496689e+13
1.582545e+04, 3.438150e+13
1.584128e+04, 3.393861e+13
1.585712e+04, 3.506562e+13
1.587297e+04, 3.465401e+13
1.588885e+04, 3.301586e+13
1.590474e+04, 3.290618e+13
1.592064e+04, 3.365187e+13
1.593656e+04, 3.460041e+13
1.595250e+04, 3.499473e+13
1.596845e+04, 3.466393e+13
1.598442e+04, 3.460636e+13
1.600040e+04, 3.470943e+13
1.601640e+04, 3.451461e+13
1.603242e+04, 3.457690e+13
1.604845e+04, 3.338214e+13
1.606450e+04, 3.233065e+13
1.608057e+04, 3.306893e+13
1.609665e+04, 3.474106e+13
1.611274e+04, 3.443320e+13
1.612886e+04, 3.409194e+13
1.614498e+04, 3.367925e+13
1.616113e+04, 3.178807e+13
1.617729e+04, 3.458616e+13
1.619347e+04, 3.185308e+13
1.620966e+04, 3.181269e+13
1.622587e+04, 3.270882e+13
1.624210e+04, 3.318304e+13
1.625834e+04, 3.171547e+13
1.627460e+04, 3.374544e+13
1.629087e+04, 3.444855e+13
1.630716e+04, 3.371697e+13
1.632347e+04, 3.333738e+13
1.633979e+04, 3.384789e+13
1.635613e+04, 3.219964e+13
1.637249e+04, 3.275201e+13
1.638886e+04, 3.340002e+13
1.640525e+04, 3.349765e+13
1.642166e+04, 3.375452e+13
1.643808e+04, 3.372522e+13
1.645452e+04, 3.098107e+13
1.647097e+04, 3.311310e+13
1.648744e+04, 3.348663e+13
1.650393e+04, 3.371195e+13
1.652043e+04, 3.310910e+13
1.653695e+04, 3.176308e+13
1.655349e+04, 3.371466e+13
1.657004e+04, 3.370542e+13
1.658661e+04, 3.278629e+13
1.660320e+04, 3.300683e+13
1.661980e+04, 3.295022e+13
1.663642e+04, 3.316786e+13
1.665306e+04, 3.170878e+13
1.666971e+04, 3.249884e+13
1.668638e+04, 3.283940e+13
1.670307e+04, 3.240187e+13
1.671977e+04, 2.984516e+13
1.673649e+04, 3.190581e+13
1.675323e+04, 2.995725e+13
1.676998e+04, 3.164527e+13
1.678675e+04, 3.286487e+13
1.680354e+04, 3.265369e+13
1.682034e+04, 3.275625e+13
1.683716e+04, 3.248075e+13
1.685400e+04, 3.246619e+13
1.687085e+04, 3.106730e+13
1.688772e+04, 3.077251e+13
1.690461e+04, 2.962628e+13
1.692152e+04, 3.148436e+13
1.693844e+04, 3.199860e+13
1.695538e+04, 3.153405e+13
1.697233e+04, 3.155648e+13
1.698930e+04, 3.170227e+13
1.700629e+04, 3.108457e+13
1.702330e+04, 3.141619e+13
1.704032e+04, 3.132081e+13
1.705736e+04, 3.032029e+13
1.707442e+04, 2.974832e+13
1.709149e+04, 3.034738e+13
1.710859e+04, 2.670367e+13
1.712569e+04, 3.001593e+13
1.714282e+04, 3.024272e+13
1.715996e+04, 3.009633e+13
1.717712e+04, 2.932398e+13
1.719430e+04, 2.916329e+13
1.721149e+04, 2.947359e+13
1.722871e+04, 2.869038e+13
1.724593e+04, 2.865594e+13
1.726318e+04, 2.907975e+13
1.728044e+04, 2.936155e+13
1.729772e+04, 2.921557e+13
1.731502e+04, 2.774970e+13
1.733234e+04, 2.819445e+13
1.734967e+04, 2.729252e+13
1.736702e+04, 2.868631e+13
1.738439e+04, 2.819134e+13
1.740177e+04, 2.802722e+13
1.741917e+04, 2.752324e+13
1.743659e+04, 2.755525e+13
1.745403e+04, 2.812719e+13
1.747148e+04, 2.770012e+13
1.748895e+04, 2.788566e+13
1.750644e+04, 2.692924e+13
1.752395e+04, 2.733051e+13
1.754147e+04, 2.630482e+13
1.755901e+04, 2.598406e+13
1.757657e+04, 2.697482e+13
1.759415e+04, 2.611040e+13
1.761174e+04, 2.600140e+13
1.762936e+04, 2.582680e+13
1.764699e+04, 2.645163e+13
1.766463e+04, 2.623300e+13
1.768230e+04, 2.526850e+13
1.769998e+04, 2.641101e+13
1.771768e+04, 2.526939e+13
1.773540e+04, 2.594928e+13
1.775313e+04, 2.538844e+13
1.777089e+04, 2.448362e+13
1.778866e+04, 2.477647e+13
1.780644e+04, 2.514123e+13
1.782425e+04, 2.377516e+13
1.784208e+04, 2.502469e+13
1.785992e+04, 2.383498e+13
1.787778e+04, 2.408623e+13
1.789566e+04, 2.494707e+13
1.791355e+04, 2.394693e+13
1.793146e+04, 2.441642e+13
1.794940e+04, 2.406871e+13
1.796735e+04, 2.376228e+13
1.798531e+04, 2.434481e+13
1.800330e+04, 2.300853e+13
1.802130e+04, 2.299868e+13
1.803932e+04, 2.295664e+13
1.805736e+04, 2.307890e+13
1.807542e+04, 2.329380e+13
1.809349e+04, 2.378144e+13
1.811159e+04, 2.253077e+13
1.812970e+04, 2.285313e+13
1.814783e+04, 2.336134e+13
1.816598e+04, 2.337295e+13
1.818414e+04, 2.274968e+13
1.820233e+04, 2.221450e+13
1.822053e+04, 2.197163e+13
1.823875e+04, 2.401977e+13
1.825699e+04, 2.192576e+13
1.827525e+04, 2.202702e+13
1.829352e+04, 2.247566e+13
1.831181e+04, 2.249484e+13
1.833013e+04, 2.217360e+13
1.834846e+04, 2.239409e+13
1.836681e+04, 2.235699e+13
1.838517e+04, 2.213784e+13
1.840356e+04, 2.181038e+13
1.842196e+04, 2.156202e+13
1.844038e+04, 2.097413e+13
1.845882e+04, 2.116857e+13
1.847728e+04, 1.933343e+13
1.849576e+04, 2.095155e+13
1.851425e+04, 2.156304e+13
1.853277e+04, 2.070985e+13
1.855130e+04, 2.124826e+13
1.856985e+04, 1.980659e+13
1.858842e+04, 1.975226e+13
1.860701e+04, 1.981914e+13
1.862562e+04, 2.075018e+13
1.864424e+04, 2.036761e+13
1.866289e+04, 2.079523e+13
1.868155e+04, 2.074206e+13
1.870023e+04, 2.115005e+13
1.871893e+04, 2.028733e+13
1.873765e+04, 1.959430e+13
1.875639e+04, 2.057926e+13
1.877515e+04, 2.012071e+13
1.879392e+04, 1.987922e+13
1.881272e+04, 2.039987e+13
1.883153e+04, 2.130550e+13
1.885036e+04, 1.970682e+13
1.886921e+04, 2.026528e+13
1.888808e+04, 2.031202e+13
1.890697e+04, 2.023583e+13
1.892587e+04, 1.919939e+13
1.894480e+04, 2.009970e+13
1.896374e+04, 2.048668e+13
1.898271e+04, 1.967161e+13
1.900169e+04, 2.051491e+13
1.902069e+04, 2.000601e+13
1.903971e+04, 1.990711e+13
1.905875e+04, 1.927454e+13
1.907781e+04, 1.996495e+13
1.909689e+04, 1.974370e+13
1.911599e+04, 1.925029e+13
1.913510e+04, 2.028749e+13
1.915424e+04, 1.981463e+13
1.917339e+04, 1.954544e+13
1.919257e+04, 1.988106e+13
1.921176e+04, 1.966374e+13
1.923097e+04, 1.944072e+13
1.925020e+04, 1.946685e+13
1.926945e+04, 1.929517e+13
1.928872e+04, 1.905263e+13
1.930801e+04, 1.595856e+13
1.932732e+04, 1.781833e+13
1.934664e+04, 1.884863e+13
1.936599e+04, 1.926579e+13
1.938536e+04, 1.887233e+13
1.940474e+04, 1.863882e+13
1.942415e+04, 1.857094e+13
1.944357e+04, 1.707952e+13
1.946301e+04, 1.494627e+13
1.948248e+04, 1.761590e+13
1.950196e+04, 1.654775e+13
1.952146e+04, 1.695275e+13
1.954098e+04, 1.846750e+13
1.956052e+04, 1.821300e+13
1.958009e+04, 1.923770e+13
1.959967e+04, 1.847049e+13
1.961927e+04, 1.821548e+13
1.963888e+04, 1.805871e+13
1.965852e+04, 1.865972e+13
1.967818e+04, 1.858239e+13
1.969786e+04, 1.855253e+13
1.971756e+04, 1.817284e+13
1.973728e+04, 1.754364e+13
1.975701e+04, 1.656803e+13
1.977677e+04, 1.381555e+13
1.979655e+04, 1.562409e+13
1.981634e+04, 1.660247e+13
1.983616e+04, 1.728825e+13
1.985600e+04, 1.569155e+13
1.987585e+04, 1.546286e+13
1.989573e+04, 1.701706e+13
1.991562e+04, 1.633851e+13
1.993554e+04, 1.661213e+13
1.995547e+04, 1.724087e+13
1.997543e+04, 1.662625e+13
1.999541e+04, 1.722785e+13
2.001540e+04, 1.723238e+13
2.003542e+04, 1.753771e+13
2.005545e+04, 1.734705e+13
2.007551e+04, 1.754449e+13
2.009558e+04, 1.682848e+13
2.011568e+04, 1.677879e+13
2.013579e+04, 1.695820e+13
2.015593e+04, 1.702063e+13
2.017609e+04, 1.696656e+13
2.019626e+04, 1.622593e+13
2.021646e+04, 1.719803e+13
2.023667e+04, 1.696919e+13
2.025691e+04, 1.669357e+13
2.027717e+04, 1.644096e+13
2.029744e+04, 1.638018e+13
2.031774e+04, 1.677985e+13
2.033806e+04, 1.665883e+13
2.035840e+04, 1.642637e+13
2.037876e+04, 1.663639e+13
2.039914e+04, 1.643093e+13
2.041953e+04, 1.663454e+13
2.043995e+04, 1.617321e+13
2.046039e+04, 1.624310e+13
2.048085e+04, 1.620753e+13
2.050134e+04, 1.610015e+13
2.052184e+04, 1.641680e+13
2.054236e+04, 1.585936e+13
2.056290e+04, 1.604502e+13
2.058346e+04, 1.632084e+13
2.060405e+04, 1.600331e+13
2.062465e+04, 1.611440e+13
2.064528e+04, 1.555185e+13
2.066592e+04, 1.591485e+13
2.068659e+04, 1.587011e+13
2.070727e+04, 1.615815e+13
2.072798e+04, 1.564343e+13
2.074871e+04, 1.578136e+13
2.076946e+04, 1.575929e+13
2.079023e+04, 1.584372e+13
2.081102e+04, 1.563082e+13
2.083183e+04, 1.565229e+13
2.085266e+04, 1.554728e+13
2.087351e+04, 1.551577e+13
2.089439e+04, 1.532378e+13
2.091528e+04, 1.584632e+13
2.093620e+04, 1.554417e+13
2.095713e+04, 1.537912e+13
2.097809e+04, 1.544840e+13
2.099907e+04, 1.531072e+13
2.102007e+04, 1.541788e+13
2.104109e+04, 1.551332e+13
2.106213e+04, 1.538975e+13
2.108319e+04, 1.511939e+13
2.110427e+04, 1.537781e+13
2.112538e+04, 1.506088e+13
2.114650e+04, 1.540873e+13
2.116765e+04, 1.484828e+13
2.118882e+04, 1.520240e+13
2.121001e+04, 1.517379e+13
2.123122e+04, 1.520990e+13
2.125245e+04, 1.514307e+13
2.127370e+04, 1.505428e+13
2.129497e+04, 1.497205e+13
2.131627e+04, 1.512086e+13
2.133758e+04, 1.509683e+13
2.135892e+04, 1.513732e+13
2.138028e+04, 1.483165e+13
2.140166e+04, 1.487009e+13
2.142306e+04, 1.489942e+13
2.144449e+04, 1.524612e+13
2.146593e+04, 1.504234e+13
2.148740e+04, 1.482867e+13
2.150888e+04, 1.484066e+13
2.153039e+04, 1.474140e+13
2.155192e+04, 1.485007e+13
2.157347e+04, 1.489180e+13
2.159505e+04, 1.475274e+13
2.161664e+04, 1.493671e+13
2.163826e+04, 1.467230e+13
2.165990e+04, 1.477971e+13
2.168156e+04, 1.485706e+13
2.170324e+04, 1.472924e+13
2.172494e+04, 1.468011e+13
2.174667e+04, 1.469697e+13
2.176841e+04, 1.457828e+13
2.179018e+04, 1.434762e+13
2.181197e+04, 1.453066e+13
2.183378e+04, 1.441817e+13
2.185562e+04, 1.456623e+13
2.187747e+04, 1.453361e+13
2.189935e+04, 1.428437e+13
2.192125e+04, 1.446988e+13
2.194317e+04, 1.450501e+13
2.196512e+04, 1.441371e+13
2.198708e+04, 1.438515e+13
2.200907e+04, 1.431074e+13
2.203108e+04, 1.419710e+13
2.205311e+04, 1.334924e+13
2.207516e+04, 1.375574e+13
2.209724e+04, 1.345073e+13
2.211933e+04, 1.422721e+13
2.214145e+04, 1.423790e+13
2.216359e+04, 1.418819e+13
2.218576e+04, 1.419989e+13
2.220794e+04, 1.393955e+13
2.223015e+04, 1.402552e+13
2.225238e+04, 1.419575e+13
2.227463e+04, 1.380586e+13
2.229691e+04, 1.395310e+13
2.231921e+04, 1.400183e+13
2.234152e+04, 1.387719e+13
2.236387e+04, 1.394891e+13
2.238623e+04, 1.390631e+13
2.240862e+04, 1.385863e+13
2.243102e+04, 1.387822e+13
2.245346e+04, 1.383752e+13
2.247591e+04, 1.380264e+13
2.249839e+04, 1.381361e+13
2.252088e+04, 1.380687e+13
2.254340e+04, 1.370182e+13
2.256595e+04, 1.374803e+13
2.258851e+04, 1.361379e+13
2.261110e+04, 1.302501e+13
2.263371e+04, 1.272818e+13
2.265635e+04, 1.264946e+13
2.267900e+04, 1.346097e+13
2.270168e+04, 1.340670e+13
2.272438e+04, 1.342648e+13
2.274711e+04, 1.346624e+13
2.276986e+04, 1.344645e+13
2.279263e+04, 1.333638e+13
2.281542e+04, 1.328865e+13
2.283823e+04, 1.309038e+13
2.286107e+04, 1.330924e+13
2.288393e+04, 1.323508e+13
2.290682e+04, 1.323403e+13
2.292972e+04, 1.237066e+13
2.295265e+04, 1.183435e+13
2.297561e+04, 1.212947e+13
2.299858e+04, 1.249197e+13
2.302158e+04, 1.248902e+13
2.304460e+04, 1.253051e+13
2.306765e+04, 1.220721e+13
2.309071e+04, 1.251273e+13
2.311380e+04, 1.239443e+13
2.313692e+04, 1.245162e+13
2.316006e+04, 1.233798e+13
2.318322e+04, 1.238692e+13
2.320640e+04, 1.236122e+13
2.322961e+04, 1.099081e+13
2.325283e+04, 1.135526e+13
2.327609e+04, 1.174806e+13
2.329936e+04, 1.163316e+13
2.332266e+04, 1.187616e+13
2.334599e+04, 1.135330e+13
2.336933e+04, 1.152281e+13
2.339270e+04, 1.114490e+13
2.341609e+04, 1.178399e+13
2.343951e+04, 1.160893e+13
2.346295e+04, 1.177522e+13
2.348641e+04, 1.167012e+13
2.350990e+04, 1.161098e+13
2.353341e+04, 1.014738e+13
2.355694e+04, 1.101682e+13
2.358050e+04, 1.101502e+13
2.360408e+04, 1.109394e+13
2.362768e+04, 1.112076e+13
2.365131e+04, 1.134068e+13
2.367496e+04, 1.112752e+13
2.369864e+04, 1.116482e+13
2.372234e+04, 1.124618e+13
2.374606e+04, 1.108093e+13
2.376980e+04, 1.118898e+13
2.379357e+04, 1.104174e+13
2.381737e+04, 1.077376e+13
2.384119e+04, 9.846652e+12
2.386503e+04, 1.025370e+13
2.388889e+04, 1.042378e+13
2.391278e+04, 1.040219e+13
2.393669e+04, 1.061713e+13
2.396063e+04, 1.032012e+13
2.398459e+04, 1.042852e+13
2.400858e+04, 1.035479e+13
2.403258e+04, 1.015933e+13
2.405662e+04, 1.023848e+13
2.408067e+04, 9.919354e+12
2.410475e+04, 1.001510e+13
2.412886e+04, 9.910588e+12
2.415299e+04, 9.489259e+12
2.417714e+04, 9.661188e+12
2.420132e+04, 9.770319e+12
2.422552e+04, 9.394387e+12
2.424974e+04, 9.787153e+12
2.427399e+04, 9.364783e+12
2.429827e+04, 9.688380e+12
2.432257e+04, 9.469261e+12
2.434689e+04, 9.319239e+12
2.437124e+04, 9.025145e+12
2.439561e+04, 9.614679e+12
2.442000e+04, 9.183017e+12
2.444442e+04, 9.053826e+12
2.446887e+04, 8.953560e+12
2.449334e+04, 8.886383e+12
2.451783e+04, 8.873785e+12
2.454235e+04, 8.432757e+12
2.456689e+04, 9.074709e+12
2.459146e+04, 8.929833e+12
2.461605e+04, 8.339652e+12
2.464066e+04, 8.934153e+12
2.466530e+04, 8.573660e+12
2.468997e+04, 8.541205e+12
2.471466e+04, 8.633239e+12
2.473937e+04, 8.183219e+12
2.476411e+04, 8.503132e+12
2.478888e+04, 8.338972e+12
2.481367e+04, 7.932378e+12
2.483848e+04, 8.514281e+12
2.486332e+04, 7.607580e+12
2.488818e+04, 7.530773e+12
2.491307e+04, 7.415752e+12
2.493798e+04, 7.668526e+12
2.496292e+04, 7.758654e+12
2.498788e+04, 7.423396e+12
2.501287e+04, 7.627549e+12
2.503788e+04, 7.382905e+12
2.506292e+04, 7.239767e+12
2.508799e+04, 7.711219e+12
2.511307e+04, 7.445175e+12
2.513819e+04, 7.342792e+12
2.516332e+04, 7.390722e+12
2.518849e+04, 7.451574e+12
2.521368e+04, 7.468477e+12
2.523889e+04, 7.195366e+12
2.526413e+04, 7.192785e+12
2.528939e+04, 7.138328e+12
2.531468e+04, 7.522358e+12
2.534000e+04, 7.218933e+12
2.536534e+04, 6.991988e+12
2.539070e+04, 7.228883e+12
2.541609e+04, 7.201912e+12
2.544151e+04, 7.133923e+12
2.546695e+04, 7.290610e+12
2.549242e+04, 7.077448e+12
2.551791e+04, 7.181842e+12
2.554343e+04, 7.205854e+12
2.556897e+04, 7.155144e+12
2.559454e+04, 7.229648e+12
2.562014e+04, 6.910088e+12
2.564576e+04, 7.122055e+12
2.567140e+04, 7.107177e+12
2.569707e+04, 6.967590e+12
2.572277e+04, 7.427530e+12
2.574849e+04, 6.910924e+12
2.577424e+04, 6.740113e+12
2.580002e+04, 7.230572e+12
2.582582e+04, 6.911884e+12
2.585164e+04, 7.300306e+12
2.587749e+04, 7.067928e+12
2.590337e+04, 7.004021e+12
2.592927e+04, 7.191191e+12
2.595520e+04, 6.909959e+12
2.598116e+04, 6.866995e+12
2.600714e+04, 7.189085e+12
2.603315e+04, 7.157821e+12
2.605918e+04, 7.050331e+12
2.608524e+04, 6.699856e+12
2.611132e+04, 7.389188e+12
2.613744e+04, 7.036060e+12
2.616357e+04, 7.151787e+12
2.618974e+04, 6.665189e+12
2.621593e+04, 6.702812e+12
2.624214e+04, 6.820718e+12
2.626838e+04, 6.788206e+12
2.629465e+04, 6.822879e+12
2.632095e+04, 6.912898e+12
2.634727e+04, 6.630006e+12
2.637362e+04, 6.840245e+12
2.639999e+04, 6.665074e+12
2.642639e+04, 6.718549e+12
2.645282e+04, 6.689495e+12
2.647927e+04, 6.769200e+12
2.650575e+04, 6.695314e+12
2.653225e+04, 6.729419e+12
2.655879e+04, 6.471481e+12
2.658534e+04, 6.867484e+12
2.661193e+04, 6.613604e+12
2.663854e+04, 6.667884e+12
2.666518e+04, 6.696270e+12
2.669185e+04, 6.647692e+12
2.671854e+04, 6.687694e+12
2.674526e+04, 6.663199e+12
2.677200e+04, 6.245866e+12
2.679877e+04, 6.684470e+12
2.682557e+04, 6.471347e+12
2.685240e+04, 6.411415e+12
2.687925e+04, 6.645522e+12
2.690613e+04, 6.642676e+12
2.693303e+04, 6.237734e+12
2.695997e+04, 6.102375e+12
2.698693e+04, 6.495733e+12
2.701391e+04, 6.476560e+12
2.704093e+04, 6.126617e+12
2.706797e+04, 6.316453e+12
2.709504e+04, 6.386012e+12
2.712213e+04, 6.017248e+12
2.714925e+04, 6.264680e+12
2.717640e+04, 6.068102e+12
2.720358e+04, 6.259110e+12
2.723078e+04, 6.066938e+12
2.725801e+04, 6.100150e+12
2.728527e+04, 5.793211e+12
2.731256e+04, 6.253056e+12
2.733987e+04, 6.246536e+12
2.736721e+04, 5.704767e+12
2.739458e+04, 5.669643e+12
2.742197e+04, 6.116017e+12
2.744939e+04, 5.965008e+12
2.747684e+04, 5.963708e+12
2.750432e+04, 5.760407e+12
2.753182e+04, 5.879691e+12
2.755936e+04, 5.746640e+12
2.758692e+04, 5.904746e+12
2.761450e+04, 5.882881e+12
2.764212e+04, 5.818389e+12
2.766976e+04, 5.409362e+12
2.769743e+04, 5.636194e+12
2.772513e+04, 5.735467e+12
2.775285e+04, 5.881652e+12
2.778060e+04, 5.644960e+12
2.780839e+04, 5.679149e+12
2.783619e+04, 5.710247e+12
2.786403e+04, 5.340037e+12
2.789189e+04, 5.420083e+12
2.791979e+04, 5.407960e+12
2.794771e+04, 5.681822e+12
2.797565e+04, 5.515355e+12
2.800363e+04, 5.472209e+12
2.803163e+04, 5.096410e+12
2.805966e+04, 5.157831e+12
2.808772e+04, 5.434048e+12
2.811581e+04, 5.469983e+12
2.814393e+04, 5.304836e+12
2.817207e+04, 5.271674e+12
2.820024e+04, 4.956170e+12
2.822844e+04, 5.277236e+12
2.825667e+04, 5.255723e+12
2.828493e+04, 5.352133e+12
2.831321e+04, 5.336658e+12
2.834153e+04, 5.188396e+12
2.836987e+04, 5.005110e+12
2.839824e+04, 5.290141e+12
2.842664e+04, 5.162337e+12
2.845506e+04, 5.242485e+12
2.848352e+04, 5.182559e+12
2.851200e+04, 5.048247e+12
2.854051e+04, 4.808435e+12
2.856905e+04, 4.981367e+12
2.859762e+04, 5.426663e+12
2.862622e+04, 5.149132e+12
2.865485e+04, 5.085358e+12
2.868350e+04, 4.951631e+12
2.871219e+04, 4.879494e+12
2.874090e+04, 4.798121e+12
2.876964e+04, 5.241313e+12
2.879841e+04, 5.146596e+12
2.882721e+04, 5.102739e+12
2.885603e+04, 4.850176e+12
2.888489e+04, 4.822646e+12
2.891377e+04, 4.779078e+12
2.894269e+04, 5.169838e+12
2.897163e+04, 5.141448e+12
2.900060e+04, 4.658446e+12
2.902960e+04, 4.820247e+12
2.905863e+04, 4.941225e+12
2.908769e+04, 4.375744e+12
2.911678e+04, 4.892497e+12
2.914590e+04, 4.978578e+12
2.917504e+04, 4.835468e+12
2.920422e+04, 4.671953e+12
2.923342e+04, 4.538439e+12
2.926265e+04, 4.713546e+12
2.929192e+04, 4.398747e+12
2.932121e+04, 4.881170e+12
2.935053e+04, 4.688139e+12
2.937988e+04, 4.673955e+12
2.940926e+04, 4.480810e+12
2.943867e+04, 4.446894e+12
2.946811e+04, 4.482574e+12
2.949758e+04, 4.465906e+12
2.952707e+04, 4.653997e+12
2.955660e+04, 4.464345e+12
2.958616e+04, 4.655835e+12
2.961574e+04, 4.394081e+12
2.964536e+04, 4.511079e+12
2.967501e+04, 4.302000e+12
2.970468e+04, 4.368803e+12
2.973439e+04, 4.507684e+12
2.976412e+04, 4.620118e+12
2.979388e+04, 4.506251e+12
2.982368e+04, 4.351450e+12
2.985350e+04, 4.448343e+12
2.988335e+04, 4.069565e+12
2.991324e+04, 4.367403e+12
2.994315e+04, 4.516472e+12
2.997309e+04, 4.423252e+12
3.000307e+04, 4.348173e+12
3.003307e+04, 4.245600e+12
3.006310e+04, 4.234260e+12
3.009317e+04, 3.889858e+12
3.012326e+04, 4.262840e+12
3.015338e+04, 4.543695e+12
3.018354e+04, 4.415223e+12
3.021372e+04, 4.187216e+12
3.024393e+04, 4.210130e+12
3.027418e+04, 4.145604e+12
3.030445e+04, 4.093102e+12
3.033476e+04, 4.337734e+12
3.036509e+04, 4.273136e+12
3.039546e+04, 4.266745e+12
3.042585e+04, 4.043733e+12
3.045628e+04, 4.038218e+12
3.048673e+04, 3.889483e+12
3.051722e+04, 3.974879e+12
3.054774e+04, 4.357382e+12
3.057829e+04, 4.157077e+12
3.060886e+04, 4.183059e+12
3.063947e+04, 4.122979e+12
3.067011e+04, 4.091434e+12
3.070078e+04, 3.920922e+12
3.073148e+04, 3.880223e+12
3.076221e+04, 4.072749e+12
3.079298e+04, 4.164793e+12
3.082377e+04, 4.032685e+12
3.085459e+04, 3.898310e+12
3.088545e+04, 3.897435e+12
3.091633e+04, 3.841141e+12
3.094725e+04, 3.894159e+12
3.097820e+04, 3.904096e+12
3.100918e+04, 4.132495e+12
3.104018e+04, 4.056992e+12
3.107122e+04, 3.877960e+12
3.110230e+04, 3.892998e+12
3.113340e+04, 3.812398e+12
3.116453e+04, 3.859214e+12
3.119570e+04, 3.873549e+12
3.122689e+04, 3.974388e+12
3.125812e+04, 3.986661e+12
3.128938e+04, 3.743379e+12
3.132067e+04, 3.602444e+12
3.135199e+04, 3.741079e+12
3.138334e+04, 3.874238e+12
3.141472e+04, 3.903722e+12
3.144614e+04, 3.755260e+12
3.147758e+04, 3.823633e+12
3.150906e+04, 3.858624e+12
3.154057e+04, 3.706619e+12
3.157211e+04, 3.597149e+12
3.160368e+04, 3.848577e+12
3.163529e+04, 3.859074e+12
3.166692e+04, 3.705555e+12
3.169859e+04, 3.790542e+12
3.173029e+04, 3.708051e+12
3.176202e+04, 3.701822e+12
3.179378e+04, 3.501056e+12
3.182557e+04, 3.657218e+12
3.185740e+04, 3.699539e+12
3.188926e+04, 3.674445e+12
3.192115e+04, 3.697668e+12
3.195307e+04, 3.654513e+12
3.198502e+04, 3.576538e+12
3.201700e+04, 3.511155e+12
3.204902e+04, 3.640535e+12
3.208107e+04, 3.762171e+12
3.211315e+04, 3.696062e+12
3.214526e+04, 3.675122e+12
3.217741e+04, 3.562565e+12
3.220959e+04, 3.591808e+12
3.224180e+04, 3.595689e+12
3.227404e+04, 3.468431e+12
3.230631e+04, 3.636960e+12
3.233862e+04, 3.543694e+12
3.237096e+04, 3.515760e+12
3.240333e+04, 3.507016e+12
3.243573e+04, 3.446339e+12
3.246817e+04, 3.505611e+12
3.250064e+04, 3.519472e+12
3.253314e+04, 3.540809e+12
3.256567e+04, 3.609193e+12
3.259824e+04, 3.594405e+12
3.263083e+04, 3.536780e+12
3.266346e+04, 3.488613e+12
3.269613e+04, 3.425893e+12
3.272882e+04, 3.550094e+12
3.276155e+04, 3.405732e+12
3.279431e+04, 3.444083e+12
3.282711e+04, 3.380310e+12
3.285994e+04, 3.329856e+12
3.289280e+04, 3.439272e+12
3.292569e+04, 3.339443e+12
3.295861e+04, 3.400102e+12
3.299157e+04, 3.418124e+12
3.302456e+04, 3.487799e+12
3.305759e+04, 3.433808e+12
3.309065e+04, 3.376442e+12
3.312374e+04, 3.422567e+12
3.315686e+04, 3.331083e+12
3.319002e+04, 3.335445e+12
3.322321e+04, 3.397216e+12
3.325643e+04, 3.367891e+12
3.328969e+04, 3.470677e+12
3.332298e+04, 3.399395e+12
3.335630e+04, 3.306238e+12
3.338966e+04, 3.115219e+12
3.342305e+04, 3.258708e+12
3.345647e+04, 3.300874e+12
3.348993e+04, 3.315228e+12
3.352342e+04, 3.348096e+12
3.355694e+04, 3.229038e+12
3.359050e+04, 3.311573e+12
3.362409e+04, 3.299734e+12
3.365771e+04, 3.267963e+12
3.369137e+04, 3.310840e+12
3.372506e+04, 3.275719e+12
3.375878e+04, 3.245491e+12
3.379254e+04, 3.251465e+12
3.382634e+04, 3.253319e+12
3.386016e+04, 3.252258e+12
3.389402e+04, 3.288395e+12
3.392792e+04, 3.145080e+12
3.396184e+04, 2.998415e+12
3.399581e+04, 3.170776e+12
3.402980e+04, 3.197167e+12
3.406383e+04, 3.192906e+12
3.409790e+04, 3.137329e+12
3.413199e+04, 3.132603e+12
3.416613e+04, 3.136230e+12
3.420029e+04, 3.166797e+12
3.423449e+04, 3.197236e+12
3.426873e+04, 3.192222e+12
3.430300e+04, 3.164703e+12
3.433730e+04, 3.174326e+12
3.437164e+04, 3.152769e+12
3.440601e+04, 3.144038e+12
3.444041e+04, 3.074921e+12
3.447485e+04, 3.091401e+12
3.450933e+04, 3.049583e+12
3.454384e+04, 3.027852e+12
3.457838e+04, 2.911371e+12
3.461296e+04, 3.032751e+12
3.464757e+04, 3.049177e+12
3.468222e+04, 3.127729e+12
3.471690e+04, 3.112660e+12
3.475162e+04, 3.072498e+12
3.478637e+04, 3.094206e+12
3.482116e+04, 3.018708e+12
3.485598e+04, 3.036091e+12
3.489083e+04, 3.030601e+12
3.492573e+04, 2.979915e+12
3.496065e+04, 3.069164e+12
3.499561e+04, 2.975061e+12
3.503061e+04, 3.045729e+12
3.506564e+04, 2.977915e+12
3.510070e+04, 2.916757e+12
3.513580e+04, 2.931719e+12
3.517094e+04, 2.946331e+12
3.520611e+04, 2.750934e+12
3.524132e+04, 2.890429e+12
3.527656e+04, 2.936343e+12
3.531184e+04, 3.000655e+12
3.534715e+04, 2.968313e+12
3.538249e+04, 2.886628e+12
3.541788e+04, 2.950715e+12
3.545329e+04, 2.893831e+12
3.548875e+04, 2.912161e+12
3.552424e+04, 2.877739e+12
3.555976e+04, 2.892654e+12
3.559532e+04, 2.882822e+12
3.563092e+04, 2.903112e+12
3.566655e+04, 2.890982e+12
3.570221e+04, 2.719295e+12
3.573792e+04, 2.771607e+12
3.577365e+04, 2.778913e+12
3.580943e+04, 2.866664e+12
3.584524e+04, 2.842254e+12
3.588108e+04, 2.694429e+12
3.591696e+04, 2.756867e+12
3.595288e+04, 2.830387e+12
3.598883e+04, 2.776066e+12
3.602482e+04, 2.766247e+12
3.606085e+04, 2.829092e+12
3.609691e+04, 2.812915e+12
3.613300e+04, 2.774408e+12
3.616914e+04, 2.764607e+12
3.620531e+04, 2.768139e+12
3.624151e+04, 2.748323e+12
3.627775e+04, 2.779342e+12
3.631403e+04, 2.708403e+12
3.635035e+04, 2.629381e+12
3.638670e+04, 2.585667e+12
3.642308e+04, 2.735524e+12
3.645951e+04, 2.723619e+12
3.649596e+04, 2.691162e+12
3.653246e+04, 2.672858e+12
3.656899e+04, 2.631138e+12
3.660556e+04, 2.579122e+12
3.664217e+04, 2.612917e+12
3.667881e+04, 2.691327e+12
3.671549e+04, 2.682035e+12
3.675220e+04, 2.652148e+12
3.678896e+04, 2.619823e+12
3.682575e+04, 2.654697e+12
3.686257e+04, 2.637792e+12
3.689943e+04, 2.628369e+12
3.693633e+04, 2.590635e+12
3.697327e+04, 2.509428e+12
3.701024e+04, 2.529443e+12
3.704725e+04, 2.534133e+12
3.708430e+04, 2.456776e+12
3.712138e+04, 2.595521e+12
3.715851e+04, 2.561487e+12
3.719566e+04, 2.570354e+12
3.723286e+04, 2.566279e+12
3.727009e+04, 2.572335e+12
3.730736e+04, 2.556977e+12
3.734467e+04, 2.384577e+12
3.738202e+04, 2.475604e+12
3.741940e+04, 2.517612e+12
3.745682e+04, 2.519177e+12
3.749427e+04, 2.536805e+12
3.753177e+04, 2.527261e+12
3.756930e+04, 2.501993e+12
3.760687e+04, 2.492455e+12
3.764448e+04, 2.422670e+12
3.768212e+04, 2.434077e+12
3.771980e+04, 2.422959e+12
3.775752e+04, 2.411302e+12
3.779528e+04, 2.401732e+12
3.783307e+04, 2.428496e+12
3.787091e+04, 2.457930e+12
3.790878e+04, 2.448492e+12
3.794669e+04, 2.442151e+12
3.798463e+04, 2.422466e+12
3.802262e+04, 2.442086e+12
3.806064e+04, 2.386309e+12
3.809870e+04, 2.331859e+12
3.813680e+04, 2.286553e+12
3.817494e+04, 2.394830e+12
3.821311e+04, 2.391591e+12
3.825133e+04, 2.374777e+12
3.828958e+04, 2.356023e+12
3.832787e+04, 2.320081e+12
3.836619e+04, 2.280309e+12
3.840456e+04, 2.297236e+12
3.844297e+04, 2.352124e+12
3.848141e+04, 2.291237e+12
3.851989e+04, 2.277076e+12
3.855841e+04, 2.273361e+12
3.859697e+04, 2.302129e+12
3.863556e+04, 2.288805e+12
3.867420e+04, 2.252534e+12
3.871287e+04, 2.277227e+12
3.875159e+04, 2.275889e+12
3.879034e+04, 2.269335e+12
3.882913e+04, 2.289437e+12
3.886796e+04, 2.241206e+12
3.890683e+04, 2.228687e+12
3.894573e+04, 2.137692e+12
3.898468e+04, 2.195207e+12
3.902366e+04, 2.230690e+12
3.906269e+04, 2.191775e+12
3.910175e+04, 2.135553e+12
3.914085e+04, 2.159446e+12
3.917999e+04, 2.206073e+12
3.921917e+04, 2.190523e+12
3.925839e+04, 2.192645e+12
3.929765e+04, 2.164834e+12
3.933695e+04, 2.119875e+12
3.937628e+04, 2.118464e+12
3.941566e+04, 2.153783e+12
3.945508e+04, 2.150834e+12
3.949453e+04, 2.132906e+12
3.953403e+04, 2.108226e+12
3.957356e+04, 2.118459e+12
3.961313e+04, 2.122966e+12
3.965275e+04, 2.099788e+12
3.969240e+04, 2.095451e+12
3.973209e+04, 2.084682e+12
3.977182e+04, 2.056579e+12
3.981160e+04, 1.960769e+12
3.985141e+04, 1.982513e+12
3.989126e+04, 2.014852e+12
3.993115e+04, 2.026838e+12
3.997108e+04, 2.033679e+12
4.001105e+04, 2.030261e+12
4.005106e+04, 2.016609e+12
4.009111e+04, 2.008256e+12
4.013121e+04, 2.006191e+12
4.017134e+04, 1.960282e+12
4.021151e+04, 1.912236e+12
4.025172e+04, 1.977696e+12
4.029197e+04, 1.971944e+12
4.033226e+04, 1.973844e+12
4.037260e+04, 1.972008e+12
4.041297e+04, 1.928253e+12
4.045338e+04, 1.857661e+12
4.049383e+04, 1.907995e+12
4.053433e+04, 1.911223e+12
4.057486e+04, 1.905619e+12
4.061544e+04, 1.876567e+12
4.065605e+04, 1.901700e+12
4.069671e+04, 1.842548e+12
4.073741e+04, 1.823668e+12
4.077814e+04, 1.843556e+12
4.081892e+04, 1.852324e+12
4.085974e+04, 1.811691e+12
4.090060e+04, 1.824527e+12
4.094150e+04, 1.835401e+12
4.098244e+04, 1.829814e+12
4.102342e+04, 1.835366e+12
4.106445e+04, 1.823248e+12
4.110551e+04, 1.750721e+12
4.114662e+04, 1.803727e+12
4.118776e+04, 1.789273e+12
4.122895e+04, 1.787643e+12
4.127018e+04, 1.779028e+12
4.131145e+04, 1.751686e+12
4.135276e+04, 1.776802e+12
4.139412e+04, 1.732483e+12
4.143551e+04, 1.759343e+12
4.147695e+04, 1.762189e+12
4.151842e+04, 1.764054e+12
4.155994e+04, 1.720036e+12
4.160150e+04, 1.691368e+12
4.164310e+04, 1.704572e+12
4.168475e+04, 1.646678e+12
4.172643e+04, 1.686861e+12
4.176816e+04, 1.708906e+12
4.180992e+04, 1.708958e+12
4.185173e+04, 1.663975e+12
4.189359e+04, 1.690863e+12
4.193548e+04, 1.679746e+12
4.197742e+04, 1.675852e+12
4.201939e+04, 1.641388e+12
4.206141e+04, 1.646580e+12
4.210347e+04, 1.640775e+12
4.214558e+04, 1.627443e+12
4.218772e+04, 1.628446e+12
4.222991e+04, 1.621085e+12
4.227214e+04, 1.637088e+12
4.231441e+04, 1.640195e+12
4.235673e+04, 1.637742e+12
4.239908e+04, 1.618282e+12
4.244148e+04, 1.608708e+12
4.248392e+04, 1.583856e+12
4.252641e+04, 1.548048e+12
4.256893e+04, 1.586177e+12
4.261150e+04, 1.576768e+12
4.265411e+04, 1.572544e+12
4.269677e+04, 1.546668e+12
4.273947e+04, 1.528623e+12
4.278221e+04, 1.580603e+12
4.282499e+04, 1.554093e+12
4.286781e+04, 1.564492e+12
4.291068e+04, 1.545671e+12
4.295359e+04, 1.439516e+12
4.299654e+04, 1.457725e+12
4.303954e+04, 1.435541e+12
4.308258e+04, 1.469045e+12
4.312566e+04, 1.469172e+12
4.316879e+04, 1.464356e+12
4.321196e+04, 1.471086e+12
4.325517e+04, 1.454593e+12
4.329842e+04, 1.449522e+12
4.334172e+04, 1.464000e+12
4.338506e+04, 1.428638e+12
4.342845e+04, 1.424143e+12
4.347188e+04, 1.428276e+12
4.351535e+04, 1.358024e+12
4.355887e+04, 1.366106e+12
4.360242e+04, 1.393473e+12
4.364603e+04, 1.388248e+12
4.368967e+04, 1.353101e+12
4.373336e+04, 1.365907e+12
4.377710e+04, 1.348132e+12
4.382087e+04, 1.347211e+12
4.386469e+04, 1.354610e+12
4.390856e+04, 1.381047e+12
4.395247e+04, 1.332893e+12
4.399642e+04, 1.343713e+12
4.404042e+04, 1.315518e+12
4.408446e+04, 1.265656e+12
4.412854e+04, 1.286161e+12
4.417267e+04, 1.289010e+12
4.421684e+04, 1.293256e+12
4.426106e+04, 1.280667e+12
4.430532e+04, 1.280455e+12
4.434963e+04, 1.242372e+12
4.439398e+04, 1.251045e+12
4.443837e+04, 1.284591e+12
4.448281e+04, 1.256137e+12
4.452729e+04, 1.275590e+12
4.457182e+04, 1.236900e+12
4.461639e+04, 1.262439e+12
4.466101e+04, 1.198887e+12
4.470567e+04, 1.211426e+12
4.475037e+04, 1.246840e+12
4.479512e+04, 1.183315e+12
4.483992e+04, 1.232336e+12
4.488476e+04, 1.206549e+12
4.492964e+04, 1.201650e+12
4.497457e+04, 1.209483e+12
4.501955e+04, 1.202464e+12
4.506457e+04, 1.175375e+12
4.510963e+04, 1.184081e+12
4.515474e+04, 1.189171e+12
4.519990e+04, 1.154533e+12
4.524510e+04, 1.174556e+12
4.529034e+04, 1.170068e+12
4.533563e+04, 1.128681e+12
4.538097e+04, 1.160017e+12
4.542635e+04, 1.169141e+12
4.547177e+04, 1.144198e+12
4.551725e+04, 1.122273e+12
4.556276e+04, 1.151864e+12
4.560833e+04, 1.133764e+12
4.565393e+04, 1.120280e+12
4.569959e+04, 1.127350e+12
4.574529e+04, 1.112595e+12
4.579103e+04, 1.133988e+12
4.583682e+04, 1.112290e+12
4.588266e+04, 1.078413e+12
4.592854e+04, 1.119904e+12
4.597447e+04, 1.091134e+12
4.602045e+04, 1.093956e+12
4.606647e+04, 1.103889e+12
4.611253e+04, 1.101072e+12
4.615865e+04, 1.048638e+12
4.620480e+04, 1.102044e+12
4.625101e+04, 1.042188e+12
4.629726e+04, 1.106112e+12
4.634356e+04, 1.083332e+12
4.638990e+04, 1.046555e+12
4.643629e+04, 1.080130e+12
4.648273e+04, 1.057219e+12
4.652921e+04, 1.058052e+12
4.657574e+04, 1.075024e+12
4.662231e+04, 1.040010e+12
4.666894e+04, 1.040126e+12
4.671561e+04, 1.055580e+12
4.676232e+04, 1.050733e+12
4.680908e+04, 1.017399e+12
4.685589e+04, 1.053705e+12
4.690275e+04, 1.015929e+12
4.694965e+04, 1.056596e+12
4.699660e+04, 1.013291e+12
4.704360e+04, 1.029356e+12
4.709064e+04, 1.004396e+12
4.713773e+04, 1.024029e+12
4.718487e+04, 9.966973e+11
4.723205e+04, 1.033967e+12
4.727929e+04, 9.895025e+11
4.732657e+04, 9.944790e+11
4.737389e+04, 9.975422e+11
4.742127e+04, 1.006953e+12
4.746869e+04, 9.948881e+11
4.751616e+04, 9.864721e+11
4.756367e+04, 9.788222e+11
4.761124e+04, 9.751111e+11
4.765885e+04, 9.622940e+11
4.770651e+04, 9.895022e+11
4.775421e+04, 9.609866e+11
4.780197e+04, 9.584817e+11
4.784977e+04, 9.399009e+11
4.789762e+04, 9.932958e+11
4.794552e+04, 9.200541e+11
4.799346e+04, 9.734944e+11
4.804146e+04, 9.398250e+11
4.808950e+04, 9.540433e+11
4.813759e+04, 9.105819e+11
4.818572e+04, 9.534496e+11
4.823391e+04, 9.441564e+11
4.828214e+04, 9.614761e+11
4.833043e+04, 9.134402e+11
4.837876e+04, 9.279483e+11
4.842713e+04, 9.159106e+11
4.847556e+04, 9.401586e+11
4.852404e+04, 9.080085e+11
4.857256e+04, 9.235313e+11
4.862113e+04, 9.154507e+11
4.866976e+04, 9.088767e+11
4.871842e+04, 8.845590e+11
4.876714e+04, 8.818167e+11
4.881591e+04, 9.242262e+11
4.886473e+04, 8.879888e+11
4.891359e+04, 9.029670e+11
4.896250e+04, 8.577564e+11
4.901147e+04, 9.087700e+11
4.906048e+04, 8.836890e+11
4.910954e+04, 8.792223e+11
4.915865e+04, 8.809851e+11
4.920781e+04, 8.829967e+11
4.925702e+04, 8.505839e+11
4.930627e+04, 8.658280e+11
4.935558e+04, 8.424853e+11
4.940493e+04, 8.873965e+11
4.945434e+04, 8.602499e+11
4.950379e+04, 8.389650e+11
4.955330e+04, 8.327878e+11
4.960285e+04, 8.352729e+11
4.965245e+04, 8.557778e+11
4.970211e+04, 8.105641e+11
4.975181e+04, 8.669180e+11
4.980156e+04, 8.274577e+11
4.985136e+04, 8.521034e+11
4.990121e+04, 8.093559e+11
4.995111e+04, 8.250785e+11
5.000106e+04, 8.022718e+11
5.005107e+04, 8.292381e+11
5.010112e+04, 8.038456e+11
5.015122e+04, 8.097596e+11
5.020137e+04, 7.798498e+11
5.025157e+04, 7.904468e+11
5.030182e+04, 7.906706e+11
5.035212e+04, 8.065345e+11
5.040248e+04, 7.906664e+11
5.045288e+04, 7.747559e+11
5.050333e+04, 8.294309e+11
5.055383e+04, 7.717772e+11
5.060439e+04, 7.804426e+11
5.065499e+04, 7.625173e+11
5.070565e+04, 7.972140e+11
5.075635e+04, 7.813063e+11
5.080711e+04, 7.475936e+11
5.085792e+04, 7.780052e+11
5.090878e+04, 7.532119e+11
5.095968e+04, 7.656419e+11
5.101064e+04, 7.773644e+11
5.106165e+04, 7.457631e+11
5.111272e+04, 7.527213e+11
5.116383e+04, 7.615004e+11
5.121499e+04, 7.400536e+11
5.126621e+04, 7.435419e+11
5.131747e+04, 7.231232e+11
5.136879e+04, 7.635104e+11
5.142016e+04, 7.387674e+11
5.147158e+04, 7.031564e+11
5.152305e+04, 7.649857e+11
5.157457e+04, 7.240921e+11
5.162615e+04, 7.171228e+11
5.167778e+04, 7.126292e+11
5.172945e+04, 7.154386e+11
5.178118e+04, 7.298914e+11
5.183296e+04, 7.185173e+11
5.188480e+04, 7.241877e+11
5.193668e+04, 7.146745e+11
5.198862e+04, 6.857528e+11
5.204061e+04, 7.026448e+11
5.209265e+04, 7.243166e+11
5.214474e+04, 7.034921e+11
5.219688e+04, 7.000842e+11
5.224908e+04, 6.897515e+11
5.230133e+04, 6.900702e+11
5.235363e+04, 7.003059e+11
5.240599e+04, 6.687344e+11
5.245839e+04, 6.870555e+11
5.251085e+04, 6.820822e+11
5.256336e+04, 6.761645e+11
5.261592e+04, 7.058593e+11
5.266854e+04, 6.729203e+11
5.272121e+04, 6.676983e+11
5.277393e+04, 6.694668e+11
5.282670e+04, 6.514798e+11
5.287953e+04, 6.770323e+11
5.293241e+04, 6.587290e+11
5.298534e+04, 6.554701e+11
5.303833e+04, 6.770116e+11
5.309137e+04, 6.353991e+11
5.314446e+04, 6.666464e+11
5.319760e+04, 6.344251e+11
5.325080e+04, 6.496645e+11
5.330405e+04, 6.534975e+11
5.335735e+04, 6.566711e+11
5.341071e+04, 6.357968e+11
5.346412e+04, 6.324164e+11
5.351759e+04, 6.290499e+11
5.357110e+04, 6.478117e+11
5.362468e+04, 6.343347e+11
5.367830e+04, 6.271377e+11
5.373198e+04, 6.390653e+11
5.378571e+04, 6.216498e+11
5.383950e+04, 6.333585e+11
5.389334e+04, 6.172195e+11
5.394723e+04, 6.212446e+11
5.400118e+04, 6.306397e+11
5.405518e+04, 6.132636e+11
5.410923e+04, 5.976181e+11
5.416334e+04, 6.085513e+11
5.421751e+04, 6.014037e+11
5.427172e+04, 6.008945e+11
5.432599e+04, 6.030242e+11
5.438032e+04, 5.912586e+11
5.443470e+04, 6.128232e+11
5.448914e+04, 6.049998e+11
5.454362e+04, 5.872287e+11
5.459817e+04, 6.017734e+11
5.465277e+04, 5.865300e+11
5.470742e+04, 5.888219e+11
5.476213e+04, 5.869242e+11
5.481689e+04, 5.903609e+11
5.487171e+04, 5.913399e+11
5.492658e+04, 5.766733e+11
5.498150e+04, 5.863752e+11
5.503649e+04, 5.896813e+11
5.509152e+04, 5.680590e+11
5.514661e+04, 5.769650e+11
5.520176e+04, 5.782682e+11
5.525696e+04, 5.544122e+11
5.531222e+04, 5.563186e+11
5.536753e+04, 5.859129e+11
5.542290e+04, 5.611675e+11
5.547832e+04, 5.515952e+11
5.553380e+04, 5.677247e+11
5.558933e+04, 5.559112e+11
5.564492e+04, 5.509749e+11
5.570057e+04, 5.585768e+11
5.575627e+04, 5.536736e+11
5.581202e+04, 5.411037e+11
5.586784e+04, 5.462726e+11
5.592370e+04, 5.551505e+11
5.597963e+04, 5.587727e+11
5.603561e+04, 5.427841e+11
5.609164e+04, 5.445645e+11
5.614774e+04, 5.391786e+11
5.620388e+04, 5.287781e+11
5.626009e+04, 5.410314e+11
5.631635e+04, 5.312358e+11
5.637266e+04, 5.391754e+11
5.642904e+04, 5.294363e+11
5.648546e+04, 5.301819e+11
5.654195e+04, 5.225923e+11
5.659849e+04, 5.273467e+11
5.665509e+04, 5.185640e+11
5.671175e+04, 5.354412e+11
5.676846e+04, 5.120773e+11
5.682523e+04, 5.133590e+11
5.688205e+04, 5.180122e+11
5.693893e+04, 5.051745e+11
5.699587e+04, 5.178115e+11
5.705287e+04, 5.256247e+11
5.710992e+04, 5.042597e+11
5.716703e+04, 4.960289e+11
5.722420e+04, 5.039185e+11
5.728142e+04, 5.024189e+11
5.733870e+04, 4.861883e+11
5.739604e+04, 5.017690e+11
5.745344e+04, 5.087144e+11
5.751089e+04, 5.042282e+11
5.756840e+04, 4.979171e+11
5.762597e+04, 4.933474e+11
5.768360e+04, 4.964082e+11
5.774128e+04, 4.929101e+11
5.779902e+04, 4.831620e+11
5.785682e+04, 4.915998e+11
5.791468e+04, 4.903038e+11
5.797259e+04, 4.740925e+11
5.803056e+04, 4.958953e+11
5.808860e+04, 4.929061e+11
5.814668e+04, 4.752632e+11
5.820483e+04, 4.743184e+11
5.826304e+04, 4.816034e+11
5.832130e+04, 4.665363e+11
5.837962e+04, 4.699326e+11
5.843800e+04, 4.735730e+11
5.849644e+04, 4.699894e+11
5.855493e+04, 4.642102e+11
5.861349e+04, 4.793555e+11
5.867210e+04, 4.771709e+11
5.873077e+04, 4.584174e+11
5.878951e+04, 4.643290e+11
5.884829e+04, 4.616918e+11
5.890714e+04, 4.763244e+11
5.896605e+04, 4.528120e+11
5.902502e+04, 4.456367e+11
5.908404e+04, 4.594433e+11
5.914313e+04, 4.583062e+11
5.920227e+04, 4.550638e+11
5.926147e+04, 4.621749e+11
5.932073e+04, 4.535680e+11
5.938005e+04, 4.469828e+11
5.943943e+04, 4.477104e+11
5.949887e+04, 4.439063e+11
5.955837e+04, 4.526046e+11
5.961793e+04, 4.415570e+11
5.967755e+04, 4.331627e+11
5.973723e+04, 4.471623e+11
5.979696e+04, 4.394747e+11
5.985676e+04, 4.370504e+11
5.991662e+04, 4.343657e+11
5.997653e+04, 4.390097e+11
6.003651e+04, 4.387859e+11
6.009655e+04, 4.425648e+11
6.015664e+04, 4.317297e+11
6.021680e+04, 4.256149e+11
6.027702e+04, 4.359067e+11
6.033729e+04, 4.194864e+11
6.039763e+04, 4.179553e+11
6.045803e+04, 4.180520e+11
6.051849e+04, 4.197857e+11
6.057900e+04, 4.231698e+11
6.063958e+04, 4.242556e+11
6.070022e+04, 4.246962e+11
6.076092e+04, 4.206337e+11
6.082168e+04, 4.218119e+11
6.088251e+04, 4.167640e+11
6.094339e+04, 4.209306e+11
6.100433e+04, 4.064647e+11
6.106534e+04, 4.122775e+11
6.112640e+04, 3.988452e+11
6.118753e+04, 4.065300e+11
6.124872e+04, 4.099971e+11
6.130996e+04, 4.146570e+11
6.137127e+04, 4.137597e+11
6.143265e+04, 4.013062e+11
6.149408e+04, 4.043962e+11
6.155557e+04, 4.036670e+11
6.161713e+04, 4.001763e+11
6.167874e+04, 4.029580e+11
6.174042e+04, 3.886220e+11
6.180216e+04, 3.996312e+11
6.186397e+04, 3.926483e+11
6.192583e+04, 3.950799e+11
6.198776e+04, 3.916581e+11
6.204974e+04, 3.923069e+11
6.211179e+04, 3.950883e+11
6.217390e+04, 3.851520e+11
6.223608e+04, 3.905171e+11
6.229831e+04, 3.943295e+11
6.236061e+04, 3.871798e+11
6.242297e+04, 3.751222e+11
6.248540e+04, 3.784946e+11
6.254788e+04, 3.852274e+11
6.261043e+04, 3.759532e+11
6.267304e+04, 3.789864e+11
6.273571e+04, 3.733223e+11
6.279845e+04, 3.737438e+11
6.286125e+04, 3.832109e+11
6.292411e+04, 3.675837e+11
6.298703e+04, 3.689366e+11
6.305002e+04, 3.757930e+11
6.311307e+04, 3.701594e+11
6.317618e+04, 3.639257e+11
6.323936e+04, 3.658691e+11
6.330260e+04, 3.674140e+11
6.336590e+04, 3.611282e+11
6.342927e+04, 3.596432e+11
6.349270e+04, 3.594825e+11
6.355619e+04, 3.500983e+11
6.361975e+04, 3.593596e+11
6.368337e+04, 3.594307e+11
6.374705e+04, 3.560346e+11
6.381080e+04, 3.479280e+11
6.387461e+04, 3.438684e+11
6.393848e+04, 3.527065e+11
6.400242e+04, 3.525717e+11
6.406642e+04, 3.393392e+11
6.413049e+04, 3.374630e+11
6.419462e+04, 3.380647e+11
6.425881e+04, 3.467998e+11
6.432307e+04, 3.342734e+11
6.438740e+04, 3.345587e+11
6.445178e+04, 3.373867e+11
6.451623e+04, 3.264235e+11
6.458075e+04, 3.278646e+11
6.464533e+04, 3.308884e+11
6.470998e+04, 3.090698e+11
6.477469e+04, 3.116940e+11
6.483946e+04, 3.128455e+11
6.490430e+04, 3.211539e+11
6.496921e+04, 3.119451e+11
6.503417e+04, 3.067913e+11
6.509921e+04, 3.215846e+11
6.516431e+04, 3.059998e+11
6.522947e+04, 3.113233e+11
6.529470e+04, 3.034113e+11
6.536000e+04, 3.059936e+11
6.542536e+04, 3.001438e+11
6.549078e+04, 3.019044e+11
6.555627e+04, 2.997322e+11
6.562183e+04, 2.940691e+11
6.568745e+04, 2.903553e+11
6.575314e+04, 2.926293e+11
6.581889e+04, 2.993356e+11
6.588471e+04, 2.943782e+11
6.595059e+04, 2.751400e+11
6.601655e+04, 2.852924e+11
6.608256e+04, 2.944952e+11
6.614864e+04, 2.856782e+11
6.621479e+04, 2.744965e+11
6.628101e+04, 2.775735e+11
6.634729e+04, 2.757573e+11
6.641364e+04, 2.754800e+11
6.648005e+04, 2.842394e+11
6.654653e+04, 2.737672e+11
6.661308e+04, 2.768953e+11
6.667969e+04, 2.755204e+11
6.674637e+04, 2.772692e+11
6.681312e+04, 2.674738e+11
6.687993e+04, 2.653137e+11
6.694681e+04, 2.686181e+11
6.701376e+04, 2.746533e+11
6.708077e+04, 2.744323e+11
6.714785e+04, 2.705193e+11
6.721500e+04, 2.694839e+11
6.728221e+04, 2.657667e+11
6.734949e+04, 2.692954e+11
6.741684e+04, 2.668658e+11
6.748426e+04, 2.590285e+11
6.755175e+04, 2.647310e+11
6.761930e+04, 2.606017e+11
6.768692e+04, 2.567149e+11
6.775460e+04, 2.579489e+11
6.782236e+04, 2.526255e+11
6.789018e+04, 2.547018e+11
6.795807e+04, 2.544624e+11
6.802603e+04, 2.606188e+11
6.809405e+04, 2.548944e+11
6.816215e+04, 2.449958e+11
6.823031e+04, 2.525990e+11
6.829854e+04, 2.498485e+11
6.836684e+04, 2.448579e+11
6.843521e+04, 2.571267e+11
6.850364e+04, 2.511207e+11
6.857215e+04, 2.432223e+11
6.864072e+04, 2.467183e+11
6.870936e+04, 2.445579e+11
6.877807e+04, 2.492119e+11
6.884685e+04, 2.409663e+11
6.891569e+04, 2.439677e+11
6.898461e+04, 2.457259e+11
6.905359e+04, 2.362443e+11
6.912265e+04, 2.424180e+11
6.919177e+04, 2.366145e+11
6.926096e+04, 2.371439e+11
6.933022e+04, 2.404672e+11
6.939955e+04, 2.365261e+11
6.946895e+04, 2.371566e+11
6.953842e+04, 2.335406e+11
6.960796e+04, 2.355415e+11
6.967757e+04, 2.305610e+11
6.974724e+04, 2.344630e+11
6.981699e+04, 2.299289e+11
6.988681e+04, 2.352203e+11
6.995670e+04, 2.372996e+11
7.002665e+04, 2.266593e+11
7.009668e+04, 2.234440e+11
7.016678e+04, 2.275852e+11
7.023694e+04, 2.252653e+11
7.030718e+04, 2.232676e+11
7.037749e+04, 2.334322e+11
7.044786e+04, 2.253042e+11
7.051831e+04, 2.205848e+11
7.058883e+04, 2.278003e+11
7.065942e+04, 2.251992e+11
7.073008e+04, 2.195234e+11
7.080081e+04, 2.186576e+11
7.087161e+04, 2.211242e+11
7.094248e+04, 2.171574e+11
7.101342e+04, 2.174902e+11
7.108444e+04, 2.154638e+11
7.115552e+04, 2.181536e+11
7.122668e+04, 2.140542e+11
7.129790e+04, 2.174627e+11
7.136920e+04, 2.140852e+11
7.144057e+04, 2.127703e+11
7.151201e+04, 2.114070e+11
7.158352e+04, 2.186345e+11
7.165511e+04, 2.159989e+11
7.172676e+04, 2.118605e+11
7.179849e+04, 2.107003e+11
7.187029e+04, 2.109576e+11
7.194216e+04, 2.094337e+11
7.201410e+04, 2.087517e+11
7.208611e+04, 2.068233e+11
7.215820e+04, 2.066156e+11
7.223036e+04, 2.053957e+11
7.230259e+04, 2.059874e+11
7.237489e+04, 2.043349e+11
7.244727e+04, 2.048789e+11
7.251971e+04, 2.055690e+11
7.259223e+04, 2.017457e+11
7.266482e+04, 2.052209e+11
7.273749e+04, 1.973065e+11
7.281023e+04, 2.018785e+11
7.288304e+04, 2.020936e+11
7.295592e+04, 1.963943e+11
7.302888e+04, 1.969824e+11
7.310191e+04, 1.995965e+11
7.317501e+04, 1.996628e+11
7.324818e+04, 1.974270e+11
7.332143e+04, 1.931558e+11
7.339475e+04, 1.929356e+11
7.346815e+04, 1.918264e+11
7.354161e+04, 1.932343e+11
7.361516e+04, 1.916649e+11
7.368877e+04, 1.921600e+11
7.376246e+04, 1.893465e+11
7.383622e+04, 1.911320e+11
7.391006e+04, 1.947737e+11
7.398397e+04, 1.920455e+11
7.405795e+04, 1.902818e+11
7.413201e+04, 1.874074e+11
7.420614e+04, 1.863898e+11
7.428035e+04, 1.853783e+11
7.435463e+04, 1.817084e+11
7.442898e+04, 1.842227e+11
7.450341e+04, 1.870965e+11
7.457792e+04, 1.858530e+11
7.465249e+04, 1.840793e+11
7.472715e+04, 1.850747e+11
7.480187e+04, 1.840802e+11
7.487668e+04, 1.884378e+11
7.495155e+04, 1.773987e+11
7.502650e+04, 1.793700e+11
7.510153e+04, 1.827076e+11
7.517663e+04, 1.788059e+11
7.525181e+04, 1.773450e+11
7.532706e+04, 1.742331e+11
7.540239e+04, 1.757701e+11
7.547779e+04, 1.772556e+11
7.555327e+04, 1.784529e+11
7.562882e+04, 1.799653e+11
7.570445e+04, 1.715008e+11
7.578015e+04, 1.712585e+11
7.585593e+04, 1.691878e+11
7.593179e+04, 1.748208e+11
7.600772e+04, 1.654404e+11
7.608373e+04, 1.685032e+11
7.615981e+04, 1.656779e+11
7.623597e+04, 1.700528e+11
7.631221e+04, 1.640642e+11
7.638852e+04, 1.681763e+11
7.646491e+04, 1.664650e+11
7.654138e+04, 1.669156e+11
7.661792e+04, 1.635974e+11
7.669453e+04, 1.627040e+11
7.677123e+04, 1.648635e+11
7.684800e+04, 1.657171e+11
7.692485e+04, 1.621927e+11
7.700177e+04, 1.636357e+11
7.707877e+04, 1.611079e+11
7.715585e+04, 1.605290e+11
7.723301e+04, 1.596949e+11
7.731024e+04, 1.590227e+11
7.738755e+04, 1.548664e+11
7.746494e+04, 1.552010e+11
7.754241e+04, 1.584677e+11
7.761995e+04, 1.556444e+11
7.769757e+04, 1.540433e+11
7.777527e+04, 1.577407e+11
7.785304e+04, 1.540208e+11
7.793089e+04, 1.545455e+11
7.800882e+04, 1.498243e+11
7.808683e+04, 1.513207e+11
7.816492e+04, 1.526851e+11
7.824308e+04, 1.544352e+11
7.832133e+04, 1.503427e+11
7.839965e+04, 1.536943e+11
7.847805e+04, 1.532596e+11
7.855653e+04, 1.467452e+11
7.863508e+04, 1.477842e+11
7.871372e+04, 1.451780e+11
7.879243e+04, 1.477207e+11
7.887122e+04, 1.448309e+11
7.895010e+04, 1.426681e+11
7.902905e+04, 1.448903e+11
7.910808e+04, 1.445897e+11
7.918718e+04, 1.453223e+11
7.926637e+04, 1.424927e+11
7.934564e+04, 1.457213e+11
7.942498e+04, 1.432735e+11
7.950441e+04, 1.428608e+11
7.958391e+04, 1.418046e+11
7.966350e+04, 1.395201e+11
7.974316e+04, 1.394762e+11
7.982290e+04, 1.364841e+11
7.990273e+04, 1.385694e+11
7.998263e+04, 1.404335e+11
8.006261e+04, 1.384379e+11
8.014267e+04, 1.383742e+11
8.022282e+04, 1.357612e+11
8.030304e+04, 1.409932e+11
8.038334e+04, 1.354148e+11
8.046373e+04, 1.349962e+11
8.054419e+04, 1.352257e+11
8.062473e+04, 1.354311e+11
8.070536e+04, 1.340732e+11
8.078606e+04, 1.326859e+11
8.086685e+04, 1.355761e+11
8.094772e+04, 1.318756e+11
8.102866e+04, 1.298899e+11
8.110969e+04, 1.312528e+11
8.119080e+04, 1.310646e+11
8.127199e+04, 1.301187e+11
8.135326e+04, 1.323056e+11
8.143462e+04, 1.320911e+11
8.151605e+04, 1.298333e+11
8.159757e+04, 1.265235e+11
8.167917e+04, 1.305265e+11
8.176085e+04, 1.300488e+11
8.184261e+04, 1.283664e+11
8.192445e+04, 1.271234e+11
8.200637e+04, 1.240200e+11
8.208838e+04, 1.239615e+11
8.217047e+04, 1.261556e+11
8.225264e+04, 1.251301e+11
8.233489e+04, 1.242834e+11
8.241723e+04, 1.247970e+11
8.249964e+04, 1.259008e+11
8.258214e+04, 1.265856e+11
8.266473e+04, 1.220179e+11
8.274739e+04, 1.229608e+11
8.283014e+04, 1.192405e+11
8.291297e+04, 1.231155e+11
8.299588e+04, 1.213938e+11
8.307888e+04, 1.219388e+11
8.316196e+04, 1.200884e+11
8.324512e+04, 1.181402e+11
8.332836e+04, 1.171706e+11
8.341169e+04, 1.197102e+11
8.349510e+04, 1.178185e+11
8.357860e+04, 1.183447e+11
8.366218e+04, 1.181922e+11
8.374584e+04, 1.146265e+11
8.382958e+04, 1.147849e+11
8.391341e+04, 1.151214e+11
8.399733e+04, 1.167231e+11
8.408132e+04, 1.165939e+11
8.416541e+04, 1.181195e+11
8.424957e+04, 1.142407e+11
8.433382e+04, 1.144909e+11
8.441815e+04, 1.145235e+11
8.450257e+04, 1.134628e+11
8.458708e+04, 1.119398e+11
8.467166e+04, 1.134078e+11
8.475633e+04, 1.134692e+11
8.484109e+04, 1.114289e+11
8.492593e+04, 1.104471e+11
8.501086e+04, 1.082914e+11
8.509587e+04, 1.119363e+11
8.518096e+04, 1.095788e+11
8.526614e+04, 1.128223e+11
8.535141e+04, 1.083931e+11
8.543676e+04, 1.085666e+11
8.552220e+04, 1.084023e+11
8.560772e+04, 1.069255e+11
8.569333e+04, 1.069627e+11
8.577902e+04, 1.085477e+11
8.586480e+04, 1.067996e+11
8.595067e+04, 1.071658e+11
8.603662e+04, 1.074932e+11
8.612265e+04, 1.065859e+11
8.620878e+04, 1.040129e+11
8.629499e+04, 1.050113e+11
8.638128e+04, 1.069407e+11
8.646766e+04, 1.046208e+11
8.655413e+04, 1.039435e+11
8.664068e+04, 1.052227e+11
8.672732e+04, 1.025889e+11
8.681405e+04, 1.004961e+11
8.690087e+04, 1.044511e+11
8.698777e+04, 1.068388e+11
8.707475e+04, 1.008760e+11
8.716183e+04, 1.005269e+11
8.724899e+04, 1.011307e+11
8.733624e+04, 9.941014e+10
8.742358e+04, 1.003411e+11
8.751100e+04, 9.927454e+10
8.759851e+04, 9.701305e+10
8.768611e+04, 9.848131e+10
8.777379e+04, 1.002298e+11
8.786157e+04, 9.815309e+10
8.794943e+04, 9.910054e+10
8.803738e+04, 9.601228e+10
8.812542e+04, 9.749830e+10
8.821354e+04, 9.638499e+10
8.830176e+04, 9.747332e+10
8.839006e+04, 9.612640e+10
8.847845e+04, 9.777015e+10
8.856693e+04, 9.473623e+10
8.865549e+04, 9.555010e+10
8.874415e+04, 9.632487e+10
8.883289e+04, 9.581380e+10
8.892173e+04, 9.387275e+10
8.901065e+04, 9.532159e+10
8.909966e+04, 9.341466e+10
8.918876e+04, 9.328387e+10
8.927795e+04, 9.480166e+10
8.936722e+04, 9.370410e+10
8.945659e+04, 9.105396e+10
8.954605e+04, 9.235085e+10
8.963559e+04, 9.200668e+10
8.972523e+04, 9.103260e+10
8.981496e+04, 8.987411e+10
8.990477e+04, 9.256476e+10
8.999467e+04, 9.081133e+10
9.008467e+04, 9.185809e+10
9.017475e+04, 8.976787e+10
9.026493e+04, 9.035592e+10
9.035519e+04, 8.924166e+10
9.044555e+04, 9.049571e+10
9.053599e+04, 9.001556e+10
9.062653e+04, 8.771947e+10
9.071716e+04, 8.885600e+10
9.080787e+04, 8.910254e+10
9.089868e+04, 8.667241e+10
9.098958e+04, 8.875981e+10
9.108057e+04, 8.647333e+10
9.117165e+04, 8.734348e+10
9.126282e+04, 8.611691e+10
9.135409e+04, 8.585925e+10
9.144544e+04, 8.716620e+10
9.153688e+04, 8.428259e+10
9.162842e+04, 8.654463e+10
9.172005e+04, 8.382930e+10
9.181177e+04, 8.569459e+10
9.190358e+04, 8.454781e+10
9.199549e+04, 8.309554e+10
9.208748e+04, 8.425218e+10
9.217957e+04, 8.402492e+10
9.227175e+04, 8.337369e+10
9.236402e+04, 8.359409e+10
9.245638e+04, 8.260968e+10
9.254884e+04, 8.108161e+10
9.264139e+04, 8.165535e+10
9.273403e+04, 8.161914e+10
9.282676e+04, 8.148655e+10
9.291959e+04, 8.082213e+10
9.301251e+04, 8.030826e+10
9.310552e+04, 8.136910e+10
9.319863e+04, 7.965494e+10
9.329183e+04, 7.917144e+10
9.338512e+04, 7.900452e+10
9.347850e+04, 8.026118e+10
9.357198e+04, 7.983467e+10
9.366556e+04, 7.981289e+10
9.375922e+04, 7.804166e+10
9.385298e+04, 7.846436e+10
9.394683e+04, 7.715378e+10
9.404078e+04, 7.720474e+10
9.413482e+04, 7.693888e+10
9.422896e+04, 7.721778e+10
9.432318e+04, 7.774494e+10
9.441751e+04, 7.476870e+10
9.451192e+04, 7.702403e+10
9.460644e+04, 7.561412e+10
9.470104e+04, 7.640111e+10
9.479574e+04, 7.523716e+10
9.489054e+04, 7.603697e+10
9.498543e+04, 7.444501e+10
9.508042e+04, 7.471679e+10
9.517550e+04, 7.422198e+10
9.527067e+04, 7.480483e+10
9.536594e+04, 7.432723e+10
9.546131e+04, 7.501954e+10
9.555677e+04, 7.367343e+10
9.565233e+04, 7.318385e+10
9.574798e+04, 7.288127e+10
9.584373e+04, 7.206231e+10
9.593957e+04, 7.215111e+10
9.603551e+04, 7.086638e+10
9.613155e+04, 7.195871e+10
9.622768e+04, 7.096058e+10
9.632390e+04, 7.100341e+10
9.642023e+04, 7.060438e+10
9.651665e+04, 7.094137e+10
9.661317e+04, 6.991674e+10
9.670978e+04, 6.990658e+10
9.680649e+04, 6.906807e+10
9.690330e+04, 7.048970e+10
9.700020e+04, 6.900821e+10
9.709720e+04, 6.945714e+10
9.719430e+04, 6.882572e+10
9.729149e+04, 6.894478e+10
9.738878e+04, 6.845061e+10
9.748617e+04, 6.877389e+10
9.758366e+04, 6.828355e+10
9.768124e+04, 6.831007e+10
9.777892e+04, 6.601521e+10
9.787670e+04, 6.704848e+10
9.797458e+04, 6.775962e+10
9.807255e+04, 6.719294e+10
9.817062e+04, 6.582785e+10
9.826879e+04, 6.612318e+10
9.836706e+04, 6.659423e+10
9.846543e+04, 6.595267e+10
9.856390e+04, 6.419638e+10
9.866246e+04, 6.576927e+10
9.876112e+04, 6.639836e+10
9.885988e+04, 6.286981e+10
9.895874e+04, 6.267189e+10
9.905770e+04, 6.400414e+10
9.915676e+04, 6.307573e+10
9.925592e+04, 6.226783e+10
9.935517e+04, 6.381129e+10
9.945453e+04, 6.414098e+10
9.955398e+04, 6.300180e+10
9.965354e+04, 6.263417e+10
9.975319e+04, 6.280619e+10
9.985294e+04, 6.191202e+10
9.995280e+04, 6.184100e+10
1.000527e+05, 6.216449e+10
1.001528e+05, 6.173420e+10
1.002530e+05, 6.189780e+10
1.003532e+05, 6.125996e+10
1.004536e+05, 6.182539e+10
1.005540e+05, 6.083367e+10
1.006546e+05, 5.885220e+10
1.007552e+05, 5.972031e+10
1.008560e+05, 5.893708e+10
1.009568e+05, 5.967043e+10
1.010578e+05, 5.940947e+10
1.011588e+05, 5.912488e+10
1.012600e+05, 5.953907e+10
1.013613e+05, 5.839908e+10
1.014626e+05, 5.864078e+10
1.015641e+05, 5.889060e+10
1.016657e+05, 5.912011e+10
1.017673e+05, 5.787366e+10
1.018691e+05, 5.732345e+10
1.019710e+05, 5.851656e+10
1.020729e+05, 5.736668e+10
1.021750e+05, 5.631318e+10
1.022772e+05, 5.686061e+10
1.023795e+05, 5.590908e+10
1.024818e+05, 5.652433e+10
1.025843e+05, 5.660562e+10
1.026869e+05, 5.629384e+10
1.027896e+05, 5.512273e+10
1.028924e+05, 5.565696e+10
1.029953e+05, 5.592788e+10
1.030983e+05, 5.517896e+10
1.032014e+05, 5.388559e+10
1.033046e+05, 5.449555e+10
1.034079e+05, 5.461705e+10
1.035113e+05, 5.475494e+10
1.036148e+05, 5.345671e+10
1.037184e+05, 5.388306e+10
1.038221e+05, 5.353699e+10
1.039259e+05, 5.368554e+10
1.040299e+05, 5.196280e+10
1.041339e+05, 5.343856e+10
1.042380e+05, 5.196472e+10
1.043423e+05, 5.164295e+10
1.044466e+05, 5.280658e+10
1.045511e+05, 5.199082e+10
1.046556e+05, 5.201262e+10
1.047603e+05, 5.077446e+10
1.048650e+05, 5.184111e+10
1.049699e+05, 5.178197e+10
1.050749e+05, 5.042913e+10
1.051799e+05, 5.103933e+10
1.052851e+05, 5.079066e+10
1.053904e+05, 5.097119e+10
1.054958e+05, 5.031779e+10
1.056013e+05, 4.998848e+10
1.057069e+05, 4.988624e+10
1.058126e+05, 4.981624e+10
1.059184e+05, 4.937836e+10
1.060243e+05, 4.827607e+10
1.061303e+05, 4.796131e+10
1.062365e+05, 5.004762e+10
1.063427e+05, 4.827110e+10
1.064491e+05, 4.940890e+10
1.065555e+05, 4.830135e+10
1.066621e+05, 4.871597e+10
1.067687e+05, 4.842266e+10
1.068755e+05, 4.724549e+10
1.069824e+05, 4.825981e+10
1.070894e+05, 4.632086e+10
1.071964e+05, 4.750822e+10
1.073036e+05, 4.689615e+10
1.074109e+05, 4.662959e+10
1.075184e+05, 4.602739e+10
1.076259e+05, 4.667350e+10
1.077335e+05, 4.676389e+10
1.078412e+05, 4.564896e+10
1.079491e+05, 4.541716e+10
1.080570e+05, 4.622735e+10
1.081651e+05, 4.541527e+10
1.082732e+05, 4.459562e+10
1.083815e+05, 4.641170e+10
1.084899e+05, 4.484032e+10
1.085984e+05, 4.556373e+10
1.087070e+05, 4.492076e+10
1.088157e+05, 4.447451e+10
1.089245e+05, 4.318156e+10
1.090334e+05, 4.363403e+10
1.091425e+05, 4.424096e+10
1.092516e+05, 4.403594e+10
1.093609e+05, 4.309701e+10
1.094702e+05, 4.337394e+10
1.095797e+05, 4.440172e+10
1.096893e+05, 4.274607e+10
1.097990e+05, 4.238042e+10
1.099088e+05, 4.216372e+10
1.100187e+05, 4.305803e+10
1.101287e+05, 4.269507e+10
1.102388e+05, 4.226883e+10
1.103491e+05, 4.276054e+10
1.104594e+05, 4.069295e+10
1.105699e+05, 4.061489e+10
1.106804e+05, 4.139640e+10
1.107911e+05, 4.126263e+10
1.109019e+05, 4.088327e+10
1.110128e+05, 4.182395e+10
1.111238e+05, 4.019656e+10
1.112349e+05, 4.112856e+10
1.113462e+05, 4.026791e+10
1.114575e+05, 4.174638e+10
1.115690e+05, 4.043694e+10
1.116806e+05, 4.036774e+10
1.117922e+05, 3.960571e+10
1.119040e+05, 3.993426e+10
1.120159e+05, 3.883435e+10
1.121279e+05, 3.956905e+10
1.122401e+05, 3.918283e+10
1.123523e+05, 3.934287e+10
1.124647e+05, 3.936467e+10
1.125771e+05, 3.888165e+10
1.126897e+05, 3.871145e+10
1.128024e+05, 3.912304e+10
1.129152e+05, 3.797893e+10
1.130281e+05, 3.762007e+10
1.131411e+05, 3.744717e+10
1.132543e+05, 3.769246e+10
1.133675e+05, 3.775374e+10
1.134809e+05, 3.825455e+10
1.135944e+05, 3.743290e+10
1.137080e+05, 3.720644e+10
1.138217e+05, 3.753078e+10
1.139355e+05, 3.704034e+10
1.140494e+05, 3.743757e+10
1.141635e+05, 3.808205e+10
1.142777e+05, 3.667482e+10
1.143919e+05, 3.604086e+10
1.145063e+05, 3.578667e+10
1.146208e+05, 3.691804e+10
1.147355e+05, 3.585563e+10
1.148502e+05, 3.564866e+10
1.149650e+05, 3.600367e+10
1.150800e+05, 3.581282e+10
1.151951e+05, 3.537696e+10
1.153103e+05, 3.543910e+10
1.154256e+05, 3.464398e+10
1.155410e+05, 3.431216e+10
1.156566e+05, 3.475675e+10
1.157722e+05, 3.445085e+10
1.158880e+05, 3.458772e+10
1.160039e+05, 3.348043e+10
1.161199e+05, 3.382461e+10
1.162360e+05, 3.437464e+10
1.163522e+05, 3.401399e+10
1.164686e+05, 3.434459e+10
1.165851e+05, 3.435221e+10
1.167016e+05, 3.416246e+10
1.168183e+05, 3.371773e+10
1.169352e+05, 3.363748e+10
1.170521e+05, 3.363479e+10
1.171691e+05, 3.300757e+10
1.172863e+05, 3.279035e+10
1.174036e+05, 3.224106e+10
1.175210e+05, 3.265306e+10
1.176385e+05, 3.246416e+10
1.177562e+05, 3.247944e+10
1.178739e+05, 3.275796e+10
1.179918e+05, 3.178333e+10
1.181098e+05, 3.236456e+10
1.182279e+05, 3.183556e+10
1.183461e+05, 3.118287e+10
1.184645e+05, 3.264669e+10
1.185829e+05, 3.099267e+10
1.187015e+05, 3.185504e+10
1.188202e+05, 3.224268e+10
1.189390e+05, 3.173721e+10
1.190580e+05, 3.040205e+10
1.191770e+05, 3.086640e+10
1.192962e+05, 3.057407e+10
1.194155e+05, 3.171779e+10
1.195349e+05, 3.077937e+10
1.196545e+05, 3.025266e+10
1.197741e+05, 3.139103e+10
1.198939e+05, 3.060938e+10
1.200138e+05, 3.023018e+10
1.201338e+05, 3.030376e+10
1.202539e+05, 2.958161e+10
1.203742e+05, 3.063459e+10
1.204946e+05, 2.927477e+10
1.206151e+05, 2.939092e+10
1.207357e+05, 3.046868e+10
1.208564e+05, 2.936658e+10
1.209773e+05, 2.936202e+10
1.210982e+05, 2.933167e+10
1.212193e+05, 2.880912e+10
1.213406e+05, 2.955189e+10
1.214619e+05, 2.842341e+10
1.215834e+05, 2.805789e+10
1.217049e+05, 2.928576e+10
1.218266e+05, 2.903006e+10
1.219485e+05, 2.870997e+10
1.220704e+05, 2.844791e+10
1.221925e+05, 2.821596e+10
1.223147e+05, 2.890261e+10
1.224370e+05, 2.792598e+10
1.225594e+05, 2.780919e+10
1.226820e+05, 2.780338e+10
1.228047e+05, 2.730048e+10
1.229275e+05, 2.770753e+10
1.230504e+05, 2.790480e+10
1.231735e+05, 2.703107e+10
1.232966e+05, 2.747800e+10
1.234199e+05, 2.765110e+10
1.235433e+05, 2.714725e+10
1.236669e+05, 2.661799e+10
1.237906e+05, 2.711637e+10
1.239144e+05, 2.736032e+10
1.240383e+05, 2.648659e+10
1.241623e+05, 2.628285e+10
1.242865e+05, 2.589192e+10
1.244108e+05, 2.590082e+10
1.245352e+05, 2.590778e+10
1.246597e+05, 2.647938e+10
1.247844e+05, 2.597472e+10
1.249091e+05, 2.615138e+10
1.250341e+05, 2.588217e+10
1.251591e+05, 2.583640e+10
1.252842e+05, 2.535182e+10
1.254095e+05, 2.535108e+10
1.255349e+05, 2.531297e+10
1.256605e+05, 2.556263e+10
1.257861e+05, 2.529259e+10
1.259119e+05, 2.513356e+10
1.260378e+05, 2.496641e+10
1.261639e+05, 2.551980e+10
1.262900e+05, 2.512082e+10
1.264163e+05, 2.445174e+10
1.265427e+05, 2.417934e+10
1.266693e+05, 2.373436e+10
1.267960e+05, 2.423247e+10
1.269227e+05, 2.478460e+10
1.270497e+05, 2.447763e+10
1.271767e+05, 2.459775e+10
1.273039e+05, 2.424355e+10
1.274312e+05, 2.480558e+10
1.275586e+05, 2.390216e+10
1.276862e+05, 2.373093e+10
1.278139e+05, 2.331293e+10
1.279417e+05, 2.332271e+10
1.280696e+05, 2.317319e+10
1.281977e+05, 2.353080e+10
1.283259e+05, 2.367308e+10
1.284542e+05, 2.324168e+10
1.285827e+05, 2.338869e+10
1.287113e+05, 2.360661e+10
1.288400e+05, 2.375413e+10
1.289688e+05, 2.300321e+10
1.290978e+05, 2.311116e+10
1.292269e+05, 2.248083e+10
1.293561e+05, 2.248355e+10
1.294855e+05, 2.277204e+10
1.296149e+05, 2.257875e+10
1.297446e+05, 2.242471e+10
1.298743e+05, 2.213637e+10
1.300042e+05, 2.251511e+10
1.301342e+05, 2.228202e+10
1.302643e+05, 2.173750e+10
1.303946e+05, 2.206028e+10
1.305250e+05, 2.183981e+10
1.306555e+05, 2.203936e+10
1.307862e+05, 2.178975e+10
1.309169e+05, 2.126057e+10
1.310479e+05, 2.211408e+10
1.311789e+05, 2.169119e+10
1.313101e+05, 2.173950e+10
1.314414e+05, 2.110283e+10
1.315728e+05, 2.126953e+10
1.317044e+05, 2.106898e+10
1.318361e+05, 2.073002e+10
1.319680e+05, 2.136903e+10
1.320999e+05, 2.019602e+10
1.322320e+05, 2.077599e+10
1.323643e+05, 2.091409e+10
1.324966e+05, 2.101117e+10
1.326291e+05, 2.032981e+10
1.327617e+05, 2.104244e+10
1.328945e+05, 2.029686e+10
1.330274e+05, 2.048785e+10
1.331604e+05, 2.014449e+10
1.332936e+05, 2.021044e+10
1.334269e+05, 1.986920e+10
1.335603e+05, 1.977843e+10
1.336939e+05, 2.015486e+10
1.338276e+05, 2.007903e+10
1.339614e+05, 2.024706e+10
1.340954e+05, 2.021544e+10
1.342294e+05, 1.954544e+10
1.343637e+05, 1.975826e+10
1.344980e+05, 1.932100e+10
1.346325e+05, 1.953457e+10
1.347672e+05, 1.940646e+10
1.349019e+05, 1.929501e+10
1.350368e+05, 1.954992e+10
1.351719e+05, 1.952752e+10
1.353070e+05, 1.888912e+10
1.354424e+05, 1.864167e+10
1.355778e+05, 1.870939e+10
1.357134e+05, 1.858876e+10
1.358491e+05, 1.896392e+10
1.359849e+05, 1.879942e+10
1.361209e+05, 1.861204e+10
1.362570e+05, 1.868922e+10
1.363933e+05, 1.810437e+10
1.365297e+05, 1.820464e+10
1.366662e+05, 1.870689e+10
1.368029e+05, 1.875875e+10
1.369397e+05, 1.796248e+10
1.370766e+05, 1.807203e+10
1.372137e+05, 1.794521e+10
1.373509e+05, 1.833030e+10
1.374883e+05, 1.783222e+10
1.376258e+05, 1.728593e+10
1.377634e+05, 1.756611e+10
1.379012e+05, 1.787843e+10
1.380391e+05, 1.811057e+10
1.381771e+05, 1.770124e+10
1.383153e+05, 1.794907e+10
1.384536e+05, 1.745400e+10
1.385920e+05, 1.735100e+10
1.387306e+05, 1.770063e+10
1.388694e+05, 1.762178e+10
1.390082e+05, 1.738716e+10
1.391472e+05, 1.723327e+10
1.392864e+05, 1.741782e+10
1.394257e+05, 1.722687e+10
1.395651e+05, 1.725098e+10
1.397047e+05, 1.669096e+10
1.398444e+05, 1.708004e+10
1.399842e+05, 1.677536e+10
1.401242e+05, 1.655606e+10
1.402643e+05, 1.694152e+10
1.404046e+05, 1.671547e+10
1.405450e+05, 1.654358e+10
1.406855e+05, 1.613934e+10
1.408262e+05, 1.653631e+10
1.409670e+05, 1.657501e+10
1.411080e+05, 1.634588e+10
1.412491e+05, 1.582138e+10
1.413904e+05, 1.598118e+10
1.415318e+05, 1.592633e+10
1.416733e+05, 1.568974e+10
1.418150e+05, 1.589098e+10
1.419568e+05, 1.571771e+10
1.420987e+05, 1.535533e+10
1.422408e+05, 1.587453e+10
1.423831e+05, 1.577173e+10
1.425255e+05, 1.601144e+10
1.426680e+05, 1.580319e+10
1.428107e+05, 1.571883e+10
1.429535e+05, 1.565406e+10
1.430964e+05, 1.574268e+10
1.432395e+05, 1.510109e+10
1.433828e+05, 1.541445e+10
1.435261e+05, 1.535765e+10
1.436697e+05, 1.527980e+10
1.438133e+05, 1.517001e+10
1.439571e+05, 1.516260e+10
1.441011e+05, 1.495270e+10
1.442452e+05, 1.493084e+10
1.443894e+05, 1.494096e+10
1.445338e+05, 1.474397e+10
1.446784e+05, 1.470418e+10
1.448231e+05, 1.453171e+10
1.449679e+05, 1.437194e+10
1.451128e+05, 1.490824e+10
1.452580e+05, 1.453968e+10
1.454032e+05, 1.463318e+10
1.455486e+05, 1.459810e+10
1.456942e+05, 1.478872e+10
1.458399e+05, 1.434096e+10
1.459857e+05, 1.438108e+10
1.461317e+05, 1.452598e+10
1.462778e+05, 1.367901e+10
1.464241e+05, 1.381277e+10
1.465705e+05, 1.335802e+10
1.467171e+05, 1.383595e+10
1.468638e+05, 1.387274e+10
1.470107e+05, 1.380367e+10
1.471577e+05, 1.351650e+10
1.473048e+05, 1.373553e+10
1.474521e+05, 1.379075e+10
1.475996e+05, 1.394268e+10
1.477472e+05, 1.374622e+10
1.478949e+05, 1.374893e+10
1.480428e+05, 1.396247e+10
1.481909e+05, 1.365410e+10
1.483391e+05, 1.350491e+10
1.484874e+05, 1.342230e+10
1.486359e+05, 1.332453e+10
1.487845e+05, 1.330328e+10
1.489333e+05, 1.311669e+10
1.490823e+05, 1.329576e+10
1.492313e+05, 1.301545e+10
1.493806e+05, 1.326612e+10
1.495299e+05, 1.311288e+10
1.496795e+05, 1.280535e+10
1.498292e+05, 1.273785e+10
1.499790e+05, 1.320685e+10
1.501290e+05, 1.281413e+10
1.502791e+05, 1.301394e+10
1.504294e+05, 1.232276e+10
1.505798e+05, 1.277909e+10
1.507304e+05, 1.301975e+10
1.508811e+05, 1.276200e+10
1.510320e+05, 1.255337e+10
1.511830e+05, 1.254067e+10
1.513342e+05, 1.227609e+10
1.514855e+05, 1.263532e+10
1.516370e+05, 1.255167e+10
1.517887e+05, 1.203801e+10
1.519405e+05, 1.229691e+10
1.520924e+05, 1.253472e+10
1.522445e+05, 1.213163e+10
1.523967e+05, 1.214618e+10
1.525491e+05, 1.181771e+10
1.527017e+05, 1.200333e+10
1.528544e+05, 1.170054e+10
1.530072e+05, 1.180066e+10
1.531602e+05, 1.168440e+10
1.533134e+05, 1.175114e+10
1.534667e+05, 1.164383e+10
1.536202e+05, 1.168511e+10
1.537738e+05, 1.157574e+10
1.539276e+05, 1.151884e+10
1.540815e+05, 1.184485e+10
1.542356e+05, 1.146930e+10
1.543898e+05, 1.150351e+10
1.545442e+05, 1.136077e+10
1.546988e+05, 1.134829e+10
1.548534e+05, 1.141063e+10
1.550083e+05, 1.142912e+10
1.551633e+05, 1.130635e+10
1.553185e+05, 1.126552e+10
1.554738e+05, 1.129961e+10
1.556293e+05, 1.113219e+10
1.557849e+05, 1.116966e+10
1.559407e+05, 1.123183e+10
1.560966e+05, 1.119481e+10
1.562527e+05, 1.116852e+10
1.564090e+05, 1.085524e+10
1.565654e+05, 1.093848e+10
1.567219e+05, 1.102382e+10
1.568787e+05, 1.092010e+10
1.570355e+05, 1.086697e+10
1.571926e+05, 1.074079e+10
1.573498e+05, 1.085157e+10
1.575071e+05, 1.056739e+10
1.576646e+05, 1.058103e+10
1.578223e+05, 1.085085e+10
1.579801e+05, 1.061218e+10
1.581381e+05, 1.039967e+10
1.582962e+05, 1.065865e+10
1.584545e+05, 1.046021e+10
1.586130e+05, 1.025183e+10
1.587716e+05, 1.056325e+10
1.589304e+05, 1.010957e+10
1.590893e+05, 1.021682e+10
1.592484e+05, 9.877224e+09
1.594076e+05, 1.031391e+10
1.595670e+05, 1.001710e+10
1.597266e+05, 9.970670e+09
1.598863e+05, 9.817963e+09
1.600462e+05, 9.895696e+09
1.602063e+05, 9.866721e+09
1.603665e+05, 1.002854e+10
1.605268e+05, 9.823246e+09
1.606874e+05, 1.002372e+10
1.608481e+05, 9.764353e+09
1.610089e+05, 9.729983e+09
1.611699e+05, 9.624219e+09
1.613311e+05, 9.908371e+09
1.614924e+05, 9.590126e+09
1.616539e+05, 9.484978e+09
1.618156e+05, 9.689101e+09
1.619774e+05, 9.602404e+09
1.621394e+05, 9.386780e+09
1.623015e+05, 9.583357e+09
1.624638e+05, 9.647386e+09
1.626263e+05, 9.376864e+09
1.627889e+05, 9.277243e+09
1.629517e+05, 9.474261e+09
1.631146e+05, 9.417565e+09
1.632777e+05, 9.211881e+09
1.634410e+05, 9.518354e+09
1.636045e+05, 9.583717e+09
1.637681e+05, 9.230128e+09
1.639318e+05, 8.973588e+09
1.640958e+05, 9.172739e+09
1.642599e+05, 9.133794e+09
1.644241e+05, 9.133161e+09
1.645885e+05, 9.220816e+09
1.647531e+05, 8.725869e+09
1.649179e+05, 9.015914e+09
1.650828e+05, 9.045940e+09
1.652479e+05, 8.970151e+09
1.654131e+05, 8.909296e+09
1.655785e+05, 8.501456e+09
1.657441e+05, 8.664046e+09
1.659099e+05, 8.737335e+09
1.660758e+05, 8.616381e+09
1.662419e+05, 8.470541e+09
1.664081e+05, 8.509599e+09
1.665745e+05, 8.530962e+09
1.667411e+05, 8.628504e+09
1.669078e+05, 8.678885e+09
1.670747e+05, 8.460339e+09
1.672418e+05, 8.369908e+09
1.674090e+05, 8.534377e+09
1.675765e+05, 8.277084e+09
1.677440e+05, 8.674733e+09
1.679118e+05, 8.340082e+09
1.680797e+05, 8.363129e+09
1.682478e+05, 8.192432e+09
1.684160e+05, 8.018532e+09
1.685844e+05, 8.345504e+09
1.687530e+05, 8.005239e+09
1.689218e+05, 8.141854e+09
1.690907e+05, 8.185224e+09
1.692598e+05, 7.990849e+09
1.694290e+05, 8.216202e+09
1.695985e+05, 8.160413e+09
1.697681e+05, 8.053925e+09
1.699378e+05, 7.957528e+09
1.701078e+05, 8.105666e+09
1.702779e+05, 8.004547e+09
1.704482e+05, 8.018154e+09
1.706186e+05, 7.931360e+09
1.707892e+05, 7.794297e+09
1.709600e+05, 7.871835e+09
1.711310e+05, 7.838511e+09
1.713021e+05, 7.593297e+09
1.714734e+05, 7.650737e+09
1.716449e+05, 7.708475e+09
1.718165e+05, 7.654337e+09
1.719883e+05, 7.560489e+09
1.721603e+05, 7.622144e+09
1.723325e+05, 7.419605e+09
1.725048e+05, 7.404272e+09
1.726773e+05, 7.399509e+09
1.728500e+05, 7.398435e+09
1.730229e+05, 7.514050e+09
1.731959e+05, 7.439220e+09
1.733691e+05, 7.328864e+09
1.735424e+05, 7.285812e+09
1.737160e+05, 7.309714e+09
1.738897e+05, 7.416813e+09
1.740636e+05, 7.165905e+09
1.742377e+05, 7.385714e+09
1.744119e+05, 7.139349e+09
1.745863e+05, 7.184965e+09
1.747609e+05, 7.025305e+09
1.749357e+05, 7.217751e+09
1.751106e+05, 7.156688e+09
1.752857e+05, 6.909166e+09
1.754610e+05, 6.929751e+09
1.756364e+05, 7.024312e+09
1.758121e+05, 7.011454e+09
1.759879e+05, 6.949070e+09
1.761639e+05, 6.976789e+09
1.763400e+05, 6.777535e+09
1.765164e+05, 6.842494e+09
1.766929e+05, 6.864271e+09
1.768696e+05, 6.918507e+09
1.770465e+05, 6.818267e+09
1.772235e+05, 6.755837e+09
1.774007e+05, 6.775796e+09
1.775781e+05, 6.736447e+09
1.777557e+05, 6.598674e+09
1.779335e+05, 6.784850e+09
1.781114e+05, 6.695367e+09
1.782895e+05, 6.645570e+09
1.784678e+05, 6.621700e+09
1.786463e+05, 6.624223e+09
1.788249e+05, 6.662040e+09
1.790037e+05, 6.659002e+09
1.791827e+05, 6.531430e+09
1.793619e+05, 6.396984e+09
1.795413e+05, 6.414917e+09
1.797208e+05, 6.552304e+09
1.799006e+05, 6.723183e+09
1.800805e+05, 6.420080e+09
1.802605e+05, 6.261033e+09
1.804408e+05, 6.396984e+09
1.806212e+05, 6.286262e+09
1.808019e+05, 6.219595e+09
1.809827e+05, 6.245916e+09
1.811636e+05, 6.390320e+09
1.813448e+05, 6.174684e+09
1.815262e+05, 6.094387e+09
1.817077e+05, 6.018586e+09
1.818894e+05, 6.075989e+09
1.820713e+05, 6.213388e+09
1.822533e+05, 6.096343e+09
1.824356e+05, 6.037808e+09
1.826180e+05, 6.053793e+09
1.828007e+05, 6.010270e+09
1.829835e+05, 5.971760e+09
1.831664e+05, 5.969945e+09
1.833496e+05, 6.062321e+09
1.835330e+05, 5.994752e+09
1.837165e+05, 5.912621e+09
1.839002e+05, 5.874168e+09
1.840841e+05, 5.891541e+09
1.842682e+05, 5.756694e+09
1.844525e+05, 5.987140e+09
1.846369e+05, 5.873782e+09
1.848215e+05, 5.921733e+09
1.850064e+05, 5.693246e+09
1.851914e+05, 5.641040e+09
1.853766e+05, 5.671392e+09
1.855619e+05, 5.571897e+09
1.857475e+05, 5.707122e+09
1.859333e+05, 5.523682e+09
1.861192e+05, 5.596818e+09
1.863053e+05, 5.556917e+09
1.864916e+05, 5.600168e+09
1.866781e+05, 5.533729e+09
1.868648e+05, 5.665324e+09
1.870516e+05, 5.532079e+09
1.872387e+05, 5.379378e+09
1.874259e+05, 5.520058e+09
1.876134e+05, 5.346283e+09
1.878010e+05, 5.465133e+09
1.879888e+05, 5.500942e+09
1.881768e+05, 5.393703e+09
1.883649e+05, 5.385817e+09
1.885533e+05, 5.344933e+09
1.887419e+05, 5.312938e+09
1.889306e+05, 5.274105e+09
1.891195e+05, 5.349513e+09
1.893086e+05, 5.263340e+09
1.894980e+05, 5.212936e+09
1.896875e+05, 5.218758e+09
1.898771e+05, 5.261275e+09
1.900670e+05, 5.156956e+09
1.902571e+05, 5.282475e+09
1.904473e+05, 5.120912e+09
1.906378e+05, 5.210065e+09
1.908284e+05, 5.092272e+09
1.910193e+05, 5.237786e+09
1.912103e+05, 5.196738e+09
1.914015e+05, 5.053993e+09
1.915929e+05, 5.170863e+09
1.917845e+05, 4.903496e+09
1.919763e+05, 4.963786e+09
1.921682e+05, 4.847135e+09
1.923604e+05, 4.906331e+09
1.925528e+05, 4.947832e+09
1.927453e+05, 4.946525e+09
1.929381e+05, 4.851513e+09
1.931310e+05, 4.910608e+09
1.933241e+05, 4.853604e+09
1.935175e+05, 4.784688e+09
1.937110e+05, 4.871687e+09
1.939047e+05, 4.940001e+09
1.940986e+05, 4.763577e+09
1.942927e+05, 4.683274e+09
1.944870e+05, 4.765392e+09
1.946815e+05, 4.777126e+09
1.948762e+05, 4.730879e+09
1.950710e+05, 4.842312e+09
1.952661e+05, 4.709806e+09
1.954614e+05, 4.743711e+09
1.956568e+05, 4.574739e+09
1.958525e+05, 4.506158e+09
1.960483e+05, 4.679255e+09
1.962444e+05, 4.468974e+09
1.964406e+05, 4.494265e+09
1.966371e+05, 4.534325e+09
1.968337e+05, 4.565377e+09
1.970305e+05, 4.606786e+09
1.972276e+05, 4.579144e+09
1.974248e+05, 4.460244e+09
1.976222e+05, 4.525632e+09
1.978198e+05, 4.498010e+09
1.980177e+05, 4.391801e+09
1.982157e+05, 4.363999e+09
1.984139e+05, 4.371699e+09
1.986123e+05, 4.409943e+09
1.988109e+05, 4.379208e+09
1.990097e+05, 4.316997e+09
1.992087e+05, 4.381173e+09
1.994080e+05, 4.250459e+09
1.996074e+05, 4.292250e+09
1.998070e+05, 4.414167e+09