wavelength[Angstrom], flux[erg / (cm3 s)]
1.000000e+03, 1.106187e-10
1.001000e+03, 3.099360e-11
1.002001e+03, 1.097028e-11
1.003003e+03, 1.239374e-11
1.004006e+03, 1.247806e-11
1.005010e+03, 2.842326e-11
1.006015e+03, 1.330811e-11
1.007021e+03, 2.004425e-11
1.008028e+03, 1.970148e-11
1.009036e+03, 1.976945e-11
1.010045e+03, 1.541425e-11
1.011055e+03, 2.234741e-11
1.012066e+03, 2.139618e-11
1.013078e+03, 2.018504e-11
1.014091e+03, 2.483930e-11
1.015105e+03, 4.543578e-11
1.016121e+03, 4.701331e-11
1.017137e+03, 2.678922e-11
1.018154e+03, 3.244677e-11
1.019172e+03, 3.921929e-11
1.020191e+03, 5.018040e-11
1.021211e+03, 6.762081e-11
1.022233e+03, 6.078898e-11
1.023255e+03, 6.285248e-11
1.024278e+03, 7.246640e-11
1.025302e+03, 5.665283e-11
1.026328e+03, 5.549695e-11
1.027354e+03, 1.754724e-10
1.028381e+03, 6.239440e-11
1.029410e+03, 7.747765e-11
1.030439e+03, 1.323944e-10
1.031470e+03, 9.740124e-11
1.032501e+03, 2.909036e-10
1.033533e+03, 1.248880e-10
1.034567e+03, 1.673924e-10
1.035602e+03, 1.425468e-10
1.036637e+03, 1.156337e-10
1.037674e+03, 3.131830e-10
1.038712e+03, 1.725778e-10
1.039750e+03, 1.867972e-10
1.040790e+03, 1.571083e-10
1.041831e+03, 2.897797e-10
1.042873e+03, 4.393115e-10
1.043915e+03, 3.271205e-10
1.044959e+03, 8.007307e-10
1.046004e+03, 5.647543e-10
1.047050e+03, 5.241778e-10
1.048097e+03, 5.011157e-10
1.049145e+03, 3.343477e-10
1.050195e+03, 2.709926e-10
1.051245e+03, 2.594328e-10
1.052296e+03, 3.832103e-10
1.053348e+03, 3.480642e-10
1.054402e+03, 5.224469e-10
1.055456e+03, 6.782341e-10
1.056512e+03, 3.702129e-10
1.057568e+03, 4.923938e-10
1.058626e+03, 5.311983e-10
1.059684e+03, 1.377488e-09
1.060744e+03, 1.900418e-09
1.061805e+03, 6.463703e-10
1.062867e+03, 1.088061e-09
1.063929e+03, 2.630259e-09
1.064993e+03, 5.109387e-10
1.066058e+03, 1.837205e-09
1.067124e+03, 9.235460e-10
1.068191e+03, 4.060532e-09
1.069260e+03, 4.369173e-09
1.070329e+03, 1.051034e-09
1.071399e+03, 1.544382e-09
1.072471e+03, 3.156559e-09
1.073543e+03, 4.068299e-09
1.074617e+03, 1.710714e-09
1.075691e+03, 1.198318e-08
1.076767e+03, 1.038109e-08
1.077844e+03, 1.817363e-09
1.078922e+03, 2.214856e-09
1.080001e+03, 4.844812e-09
1.081081e+03, 2.286304e-09
1.082162e+03, 1.843985e-08
1.083244e+03, 2.640903e-08
1.084327e+03, 7.832627e-09
1.085411e+03, 3.842603e-09
1.086497e+03, 7.395036e-09
1.087583e+03, 1.084687e-08
1.088671e+03, 1.560494e-08
1.089759e+03, 8.869262e-09
1.090849e+03, 3.111347e-08
1.091940e+03, 3.301379e-08
1.093032e+03, 1.897635e-08
1.094125e+03, 3.356900e-09
1.095219e+03, 2.376394e-08
1.096314e+03, 3.109135e-08
1.097411e+03, 2.057279e-08
1.098508e+03, 2.782669e-08
1.099607e+03, 8.480981e-09
1.100706e+03, 6.549147e-09
1.101807e+03, 1.084467e-08
1.102909e+03, 2.392405e-07
1.104012e+03, 3.864535e-08
1.105116e+03, 5.960638e-08
1.106221e+03, 1.104741e-07
1.107327e+03, 1.029039e-07
1.108434e+03, 1.523274e-08
1.109543e+03, 1.697295e-08
1.110652e+03, 1.593726e-07
1.111763e+03, 3.256554e-07
1.112875e+03, 1.792999e-07
1.113988e+03, 6.270285e-08
1.115102e+03, 4.000161e-08
1.116217e+03, 1.811839e-08
1.117333e+03, 3.116889e-07
1.118450e+03, 3.305883e-07
1.119569e+03, 8.418823e-08
1.120688e+03, 1.140702e-07
1.121809e+03, 4.321251e-07
1.122931e+03, 2.730391e-07
1.124054e+03, 1.337433e-07
1.125178e+03, 1.348852e-07
1.126303e+03, 1.553657e-06
1.127429e+03, 5.428461e-07
1.128557e+03, 2.937719e-07
1.129685e+03, 2.692501e-07
1.130815e+03, 6.322134e-07
1.131946e+03, 2.966712e-07
1.133078e+03, 8.675630e-07
1.134211e+03, 6.788436e-07
1.135345e+03, 2.176875e-07
1.136480e+03, 1.116623e-06
1.137617e+03, 1.581178e-06
1.138754e+03, 1.146156e-06
1.139893e+03, 2.421560e-07
1.141033e+03, 1.578490e-06
1.142174e+03, 1.509361e-06
1.143316e+03, 9.740729e-07
1.144460e+03, 5.800903e-07
1.145604e+03, 5.714390e-07
1.146750e+03, 7.950103e-07
1.147896e+03, 1.362208e-06
1.149044e+03, 9.878269e-07
1.150193e+03, 1.138184e-06
1.151344e+03, 6.094198e-07
1.152495e+03, 1.467326e-06
1.153647e+03, 1.874695e-06
1.154801e+03, 1.310688e-06
1.155956e+03, 1.375732e-06
1.157112e+03, 2.187564e-06
1.158269e+03, 1.353987e-06
1.159427e+03, 8.700443e-07
1.160587e+03, 2.671233e-06
1.161747e+03, 4.421186e-07
1.162909e+03, 1.490816e-06
1.164072e+03, 1.117531e-06
1.165236e+03, 8.222168e-07
1.166401e+03, 3.610651e-07
1.167568e+03, 8.292599e-07
1.168735e+03, 1.901631e-06
1.169904e+03, 7.276509e-07
1.171074e+03, 1.083559e-06
1.172245e+03, 1.022704e-06
1.173417e+03, 1.810222e-06
1.174590e+03, 1.749632e-06
1.175765e+03, 1.006008e-06
1.176941e+03, 3.120664e-06
1.178118e+03, 3.647110e-06
1.179296e+03, 2.368094e-06
1.180475e+03, 2.231530e-06
1.181656e+03, 2.918450e-06
1.182837e+03, 2.490233e-06
1.184020e+03, 2.521341e-06
1.185204e+03, 1.762371e-06
1.186389e+03, 1.914709e-06
1.187576e+03, 2.920895e-06
1.188763e+03, 3.117632e-06
1.189952e+03, 3.432782e-06
1.191142e+03, 2.829568e-06
1.192333e+03, 1.960364e-06
1.193526e+03, 2.158189e-06
1.194719e+03, 1.653113e-05
1.195914e+03, 4.852828e-05
1.197110e+03, 3.153649e-04
1.198307e+03, 4.685561e-05
1.199505e+03, 1.354981e-04
1.200705e+03, 9.403233e-05
1.201905e+03, 4.630263e-05
1.203107e+03, 1.052799e-04
1.204310e+03, 9.481420e-05
1.205515e+03, 6.189239e-05
1.206720e+03, 1.035610e-04
1.207927e+03, 5.633147e-05
1.209135e+03, 7.820527e-05
1.210344e+03, 1.010526e-05
1.211554e+03, 1.772110e-05
1.212766e+03, 8.074429e-06
1.213979e+03, 1.996706e-06
1.215193e+03, 1.627990e-06
1.216408e+03, 1.513570e-06
1.217624e+03, 3.555201e-06
1.218842e+03, 9.284340e-06
1.220061e+03, 2.297705e-05
1.221281e+03, 5.475740e-05
1.222502e+03, 8.729264e-05
1.223724e+03, 2.030222e-04
1.224948e+03, 1.331174e-04
1.226173e+03, 4.153610e-04
1.227399e+03, 1.646895e-04
1.228627e+03, 2.892526e-04
1.229855e+03, 1.424287e-04
1.231085e+03, 4.116292e-04
1.232316e+03, 8.347994e-04
1.233549e+03, 6.339122e-04
1.234782e+03, 6.551752e-04
1.236017e+03, 3.456629e-04
1.237253e+03, 4.162002e-04
1.238490e+03, 7.707683e-04
1.239729e+03, 1.144677e-03
1.240968e+03, 5.031286e-04
1.242209e+03, 5.472829e-04
1.243452e+03, 8.592781e-04
1.244695e+03, 1.026689e-03
1.245940e+03, 5.085462e-04
1.247186e+03, 9.303821e-04
1.248433e+03, 1.121776e-03
1.249681e+03, 1.020863e-03
1.250931e+03, 8.929326e-04
1.252182e+03, 1.093169e-03
1.253434e+03, 1.072498e-03
1.254688e+03, 1.396651e-03
1.255942e+03, 7.431088e-04
1.257198e+03, 5.648523e-04
1.258455e+03, 6.035441e-04
1.259714e+03, 1.113023e-03
1.260974e+03, 7.485195e-04
1.262235e+03, 9.552518e-04
1.263497e+03, 8.555556e-04
1.264760e+03, 1.032394e-03
1.266025e+03, 9.326501e-04
1.267291e+03, 9.128451e-04
1.268558e+03, 7.475295e-04
1.269827e+03, 1.445171e-03
1.271097e+03, 1.003544e-03
1.272368e+03, 9.781084e-04
1.273640e+03, 1.590490e-03
1.274914e+03, 8.832475e-04
1.276189e+03, 1.005015e-03
1.277465e+03, 1.187297e-03
1.278742e+03, 9.631617e-04
1.280021e+03, 8.601457e-04
1.281301e+03, 1.715838e-03
1.282582e+03, 1.057750e-03
1.283865e+03, 1.896866e-03
1.285149e+03, 2.191319e-03
1.286434e+03, 1.159401e-03
1.287720e+03, 2.127358e-03
1.289008e+03, 2.546042e-03
1.290297e+03, 2.678805e-03
1.291588e+03, 3.128473e-03
1.292879e+03, 2.162533e-03
1.294172e+03, 3.652869e-03
1.295466e+03, 4.296031e-03
1.296762e+03, 4.629154e-03
1.298058e+03, 4.108424e-03
1.299356e+03, 4.622873e-03
1.300656e+03, 6.972735e-03
1.301956e+03, 9.420695e-03
1.303258e+03, 1.057425e-02
1.304562e+03, 9.273998e-03
1.305866e+03, 9.511621e-03
1.307172e+03, 8.898911e-03
1.308479e+03, 9.635746e-03
1.309788e+03, 9.046847e-03
1.311098e+03, 6.173169e-03
1.312409e+03, 4.656960e-03
1.313721e+03, 5.207099e-03
1.315035e+03, 3.961052e-03
1.316350e+03, 4.753577e-03
1.317666e+03, 5.564247e-03
1.318984e+03, 4.195605e-03
1.320303e+03, 4.882006e-03
1.321623e+03, 4.834020e-03
1.322945e+03, 3.679168e-03
1.324268e+03, 4.010519e-03
1.325592e+03, 4.593440e-03
1.326918e+03, 4.552859e-03
1.328244e+03, 5.802506e-03
1.329573e+03, 6.524381e-03
1.330902e+03, 9.301747e-03
1.332233e+03, 9.264441e-03
1.333565e+03, 9.308298e-03
1.334899e+03, 1.032319e-02
1.336234e+03, 9.776090e-03
1.337570e+03, 1.073500e-02
1.338908e+03, 1.060009e-02
1.340247e+03, 1.141919e-02
1.341587e+03, 1.348745e-02
1.342928e+03, 9.172138e-03
1.344271e+03, 1.312613e-02
1.345616e+03, 9.355459e-03
1.346961e+03, 1.015522e-02
1.348308e+03, 1.309810e-02
1.349656e+03, 1.115125e-02
1.351006e+03, 1.400112e-02
1.352357e+03, 1.897606e-02
1.353709e+03, 2.360541e-02
1.355063e+03, 2.771825e-02
1.356418e+03, 2.291087e-02
1.357775e+03, 2.494341e-02
1.359132e+03, 2.627235e-02
1.360492e+03, 2.256730e-02
1.361852e+03, 2.318329e-02
1.363214e+03, 2.054625e-02
1.364577e+03, 2.415623e-02
1.365942e+03, 1.829205e-02
1.367308e+03, 2.111425e-02
1.368675e+03, 1.776592e-02
1.370044e+03, 2.087088e-02
1.371414e+03, 1.863477e-02
1.372785e+03, 2.057983e-02
1.374158e+03, 1.910121e-02
1.375532e+03, 2.490277e-02
1.376908e+03, 2.287984e-02
1.378284e+03, 3.181489e-02
1.379663e+03, 3.150180e-02
1.381042e+03, 3.709120e-02
1.382423e+03, 4.165016e-02
1.383806e+03, 4.424295e-02
1.385190e+03, 4.816940e-02
1.386575e+03, 5.802290e-02
1.387961e+03, 6.628424e-02
1.389349e+03, 7.942746e-02
1.390739e+03, 8.175466e-02
1.392130e+03, 1.010249e-01
1.393522e+03, 1.080352e-01
1.394915e+03, 1.272078e-01
1.396310e+03, 1.540148e-01
1.397706e+03, 1.800660e-01
1.399104e+03, 2.140225e-01
1.400503e+03, 2.752157e-01
1.401904e+03, 3.015004e-01
1.403306e+03, 3.009075e-01
1.404709e+03, 3.410178e-01
1.406114e+03, 3.888561e-01
1.407520e+03, 4.605184e-01
1.408927e+03, 4.024891e-01
1.410336e+03, 4.029396e-01
1.411747e+03, 5.505467e-01
1.413158e+03, 4.199309e-01
1.414571e+03, 5.659153e-01
1.415986e+03, 4.913848e-01
1.417402e+03, 6.858276e-01
1.418819e+03, 6.296738e-01
1.420238e+03, 8.369638e-01
1.421658e+03, 7.211356e-01
1.423080e+03, 7.199729e-01
1.424503e+03, 7.257196e-01
1.425928e+03, 1.017257e+00
1.427354e+03, 8.065480e-01
1.428781e+03, 9.204827e-01
1.430210e+03, 1.008401e+00
1.431640e+03, 1.105801e+00
1.433072e+03, 9.786735e-01
1.434505e+03, 1.102427e+00
1.435939e+03, 1.197873e+00
1.437375e+03, 1.236340e+00
1.438813e+03, 1.431945e+00
1.440251e+03, 1.315969e+00
1.441692e+03, 1.338161e+00
1.443133e+03, 1.365278e+00
1.444576e+03, 1.597684e+00
1.446021e+03, 1.553975e+00
1.447467e+03, 1.341454e+00
1.448914e+03, 1.859682e+00
1.450363e+03, 1.989593e+00
1.451814e+03, 1.784096e+00
1.453266e+03, 1.997339e+00
1.454719e+03, 1.979246e+00
1.456174e+03, 2.145806e+00
1.457630e+03, 1.964765e+00
1.459087e+03, 2.016634e+00
1.460546e+03, 2.021627e+00
1.462007e+03, 2.497163e+00
1.463469e+03, 2.662834e+00
1.464932e+03, 2.526817e+00
1.466397e+03, 3.190893e+00
1.467864e+03, 3.056012e+00
1.469332e+03, 2.962456e+00
1.470801e+03, 3.457443e+00
1.472272e+03, 2.697973e+00
1.473744e+03, 2.717741e+00
1.475218e+03, 3.627820e+00
1.476693e+03, 3.740541e+00
1.478170e+03, 3.555344e+00
1.479648e+03, 3.712254e+00
1.481128e+03, 4.037388e+00
1.482609e+03, 4.296084e+00
1.484091e+03, 4.544271e+00
1.485575e+03, 5.063977e+00
1.487061e+03, 4.333196e+00
1.488548e+03, 4.919467e+00
1.490037e+03, 5.410663e+00
1.491527e+03, 5.468115e+00
1.493018e+03, 4.764520e+00
1.494511e+03, 4.830565e+00
1.496006e+03, 6.384756e+00
1.497502e+03, 6.019623e+00
1.498999e+03, 6.542086e+00
1.500498e+03, 6.925685e+00
1.501999e+03, 6.796378e+00
1.503501e+03, 6.870700e+00
1.505004e+03, 7.222731e+00
1.506509e+03, 8.150846e+00
1.508016e+03, 8.278603e+00
1.509524e+03, 8.561051e+00
1.511033e+03, 8.194512e+00
1.512544e+03, 7.502082e+00
1.514057e+03, 7.114228e+00
1.515571e+03, 6.552459e+00
1.517086e+03, 6.342903e+00
1.518603e+03, 5.922043e+00
1.520122e+03, 5.890148e+00
1.521642e+03, 5.245473e+00
1.523164e+03, 5.303219e+00
1.524687e+03, 5.179622e+00
1.526212e+03, 5.063881e+00
1.527738e+03, 5.074893e+00
1.529266e+03, 4.528372e+00
1.530795e+03, 4.722463e+00
1.532326e+03, 4.202067e+00
1.533858e+03, 3.831231e+00
1.535392e+03, 3.835450e+00
1.536927e+03, 4.103943e+00
1.538464e+03, 3.950513e+00
1.540003e+03, 4.222433e+00
1.541543e+03, 4.226385e+00
1.543084e+03, 4.785768e+00
1.544627e+03, 4.316539e+00
1.546172e+03, 4.657181e+00
1.547718e+03, 4.476640e+00
1.549266e+03, 3.799866e+00
1.550815e+03, 3.640156e+00
1.552366e+03, 3.311230e+00
1.553918e+03, 4.479376e+00
1.555472e+03, 4.887873e+00
1.557028e+03, 5.986118e+00
1.558585e+03, 7.401983e+00
1.560143e+03, 8.001424e+00
1.561703e+03, 9.041170e+00
1.563265e+03, 8.660652e+00
1.564828e+03, 1.068642e+01
1.566393e+03, 1.255613e+01
1.567960e+03, 1.247788e+01
1.569528e+03, 1.425283e+01
1.571097e+03, 1.649663e+01
1.572668e+03, 1.608691e+01
1.574241e+03, 1.606090e+01
1.575815e+03, 1.648204e+01
1.577391e+03, 1.997360e+01
1.578968e+03, 2.037671e+01
1.580547e+03, 1.496738e+01
1.582128e+03, 1.150693e+01
1.583710e+03, 1.719965e+01
1.585294e+03, 1.699199e+01
1.586879e+03, 1.700875e+01
1.588466e+03, 1.954494e+01
1.590054e+03, 1.836658e+01
1.591644e+03, 1.900016e+01
1.593236e+03, 1.256629e+01
1.594829e+03, 1.606567e+01
1.596424e+03, 1.674184e+01
1.598020e+03, 1.685044e+01
1.599618e+03, 1.741513e+01
1.601218e+03, 1.598242e+01
1.602819e+03, 1.625563e+01
1.604422e+03, 1.481894e+01
1.606027e+03, 1.518549e+01
1.607633e+03, 1.818815e+01
1.609240e+03, 1.308689e+01
1.610849e+03, 1.733804e+01
1.612460e+03, 1.318104e+01
1.614073e+03, 1.781337e+01
1.615687e+03, 1.884318e+01
1.617303e+03, 1.572785e+01
1.618920e+03, 2.171342e+01
1.620539e+03, 1.433550e+01
1.622159e+03, 1.672896e+01
1.623781e+03, 2.479869e+01
1.625405e+03, 2.285578e+01
1.627031e+03, 2.895768e+01
1.628658e+03, 3.677719e+01
1.630286e+03, 4.940149e+01
1.631917e+03, 4.288152e+01
1.633549e+03, 4.172755e+01
1.635182e+03, 3.102148e+01
1.636817e+03, 6.175438e+01
1.638454e+03, 3.818994e+01
1.640093e+03, 2.840324e+01
1.641733e+03, 4.910963e+01
1.643374e+03, 5.265182e+01
1.645018e+03, 6.517281e+01
1.646663e+03, 6.530981e+01
1.648309e+03, 8.011580e+01
1.649958e+03, 7.428811e+01
1.651608e+03, 5.027303e+01
1.653259e+03, 8.113401e+01
1.654913e+03, 7.250406e+01
1.656567e+03, 5.962231e+01
1.658224e+03, 7.358608e+01
1.659882e+03, 6.349734e+01
1.661542e+03, 9.429467e+01
1.663204e+03, 9.150434e+01
1.664867e+03, 1.221478e+02
1.666532e+03, 9.479253e+01
1.668198e+03, 6.773877e+01
1.669866e+03, 5.165618e+01
1.671536e+03, 8.052593e+01
1.673208e+03, 9.126125e+01
1.674881e+03, 1.126457e+02
1.676556e+03, 1.280709e+02
1.678233e+03, 1.284822e+02
1.679911e+03, 1.344763e+02
1.681591e+03, 9.999521e+01
1.683272e+03, 1.263818e+02
1.684956e+03, 1.647821e+02
1.686640e+03, 1.437794e+02
1.688327e+03, 1.403760e+02
1.690015e+03, 1.429049e+02
1.691705e+03, 2.134082e+02
1.693397e+03, 1.468902e+02
1.695091e+03, 2.315210e+02
1.696786e+03, 3.177728e+02
1.698482e+03, 1.720614e+02
1.700181e+03, 1.725255e+02
1.701881e+03, 1.711512e+02
1.703583e+03, 1.469325e+02
1.705287e+03, 2.261000e+02
1.706992e+03, 2.962649e+02
1.708699e+03, 2.471740e+02
1.710408e+03, 3.122564e+02
1.712118e+03, 3.475707e+02
1.713830e+03, 3.496858e+02
1.715544e+03, 2.983440e+02
1.717259e+03, 1.540689e+02
1.718977e+03, 2.585077e+02
1.720696e+03, 2.439759e+02
1.722416e+03, 3.129681e+02
1.724139e+03, 3.434262e+02
1.725863e+03, 3.972137e+02
1.727589e+03, 5.557933e+02
1.729316e+03, 5.396050e+02
1.731046e+03, 5.466886e+02
1.732777e+03, 6.053298e+02
1.734510e+03, 2.734423e+02
1.736244e+03, 3.537495e+02
1.737980e+03, 3.505707e+02
1.739718e+03, 3.439787e+02
1.741458e+03, 3.587373e+02
1.743199e+03, 4.476338e+02
1.744943e+03, 5.735820e+02
1.746688e+03, 6.086875e+02
1.748434e+03, 4.951332e+02
1.750183e+03, 3.225361e+02
1.751933e+03, 3.175444e+02
1.753685e+03, 3.190851e+02
1.755439e+03, 5.941762e+02
1.757194e+03, 5.923476e+02
1.758951e+03, 5.735862e+02
1.760710e+03, 6.486205e+02
1.762471e+03, 5.692291e+02
1.764233e+03, 7.475091e+02
1.765998e+03, 7.247041e+02
1.767764e+03, 1.260198e+03
1.769531e+03, 1.025891e+03
1.771301e+03, 6.832140e+02
1.773072e+03, 4.739391e+02
1.774845e+03, 6.659571e+02
1.776620e+03, 7.680408e+02
1.778397e+03, 8.610231e+02
1.780175e+03, 9.661815e+02
1.781955e+03, 1.335866e+03
1.783737e+03, 1.444197e+03
1.785521e+03, 1.383886e+03
1.787306e+03, 1.714030e+03
1.789094e+03, 1.370448e+03
1.790883e+03, 1.152392e+03
1.792674e+03, 7.585999e+02
1.794466e+03, 1.157005e+03
1.796261e+03, 1.529495e+03
1.798057e+03, 1.272178e+03
1.799855e+03, 1.470818e+03
1.801655e+03, 1.787271e+03
1.803457e+03, 2.064415e+03
1.805260e+03, 1.881988e+03
1.807065e+03, 1.815923e+03
1.808872e+03, 2.533631e+03
1.810681e+03, 1.900310e+03
1.812492e+03, 9.276759e+02
1.814304e+03, 1.241611e+03
1.816119e+03, 1.501099e+03
1.817935e+03, 2.000441e+03
1.819753e+03, 1.509547e+03
1.821573e+03, 1.909512e+03
1.823394e+03, 2.728329e+03
1.825218e+03, 2.690103e+03
1.827043e+03, 2.430609e+03
1.828870e+03, 2.848411e+03
1.830699e+03, 2.917746e+03
1.832529e+03, 1.598214e+03
1.834362e+03, 1.447312e+03
1.836196e+03, 1.791652e+03
1.838032e+03, 2.330416e+03
1.839871e+03, 2.286043e+03
1.841710e+03, 2.599109e+03
1.843552e+03, 3.216362e+03
1.845396e+03, 3.596792e+03
1.847241e+03, 3.811423e+03
1.849088e+03, 3.690672e+03
1.850937e+03, 3.121191e+03
1.852788e+03, 2.584469e+03
1.854641e+03, 1.692173e+03
1.856496e+03, 1.722308e+03
1.858352e+03, 2.412552e+03
1.860211e+03, 3.067438e+03
1.862071e+03, 3.063166e+03
1.863933e+03, 2.719511e+03
1.865797e+03, 3.151766e+03
1.867663e+03, 3.953097e+03
1.869530e+03, 3.855070e+03
1.871400e+03, 3.881461e+03
1.873271e+03, 3.456121e+03
1.875144e+03, 3.237807e+03
1.877020e+03, 3.321825e+03
1.878897e+03, 3.107016e+03
1.880776e+03, 3.815143e+03
1.882656e+03, 4.449427e+03
1.884539e+03, 5.457091e+03
1.886424e+03, 5.328516e+03
1.888310e+03, 6.059690e+03
1.890198e+03, 6.414043e+03
1.892088e+03, 8.416854e+03
1.893981e+03, 7.914423e+03
1.895875e+03, 6.951163e+03
1.897770e+03, 6.577244e+03
1.899668e+03, 5.315369e+03
1.901568e+03, 7.006314e+03
1.903469e+03, 9.012454e+03
1.905373e+03, 8.623000e+03
1.907278e+03, 9.645665e+03
1.909186e+03, 1.048535e+04
1.911095e+03, 1.171488e+04
1.913006e+03, 1.182440e+04
1.914919e+03, 1.212586e+04
1.916834e+03, 1.362058e+04
1.918751e+03, 1.076522e+04
1.920669e+03, 1.103473e+04
1.922590e+03, 1.028762e+04
1.924513e+03, 1.142959e+04
1.926437e+03, 1.287122e+04
1.928364e+03, 1.232706e+04
1.930292e+03, 1.439382e+04
1.932222e+03, 1.616385e+04
1.934154e+03, 1.528877e+04
1.936089e+03, 1.388222e+04
1.938025e+03, 1.670424e+04
1.939963e+03, 1.630206e+04
1.941903e+03, 2.021108e+04
1.943845e+03, 1.464378e+04
1.945788e+03, 1.373737e+04
1.947734e+03, 1.733429e+04
1.949682e+03, 1.565177e+04
1.951632e+03, 1.673271e+04
1.953583e+03, 2.333563e+04
1.955537e+03, 2.068263e+04
1.957492e+03, 2.331067e+04
1.959450e+03, 2.128496e+04
1.961409e+03, 2.182536e+04
1.963371e+03, 2.457123e+04
1.965334e+03, 2.456108e+04
1.967299e+03, 2.443366e+04
1.969267e+03, 2.185493e+04
1.971236e+03, 2.777574e+04
1.973207e+03, 2.460298e+04
1.975180e+03, 2.910240e+04
1.977156e+03, 2.994702e+04
1.979133e+03, 3.180796e+04
1.981112e+03, 3.348410e+04
1.983093e+03, 3.719631e+04
1.985076e+03, 3.888106e+04
1.987061e+03, 3.688944e+04
1.989048e+03, 3.667012e+04
1.991037e+03, 3.138266e+04
1.993028e+03, 3.392771e+04
1.995021e+03, 3.116791e+04
1.997016e+03, 3.390331e+04
1.999013e+03, 3.694321e+04
2.001012e+03, 3.724508e+04
2.003013e+03, 4.214890e+04
2.005016e+03, 4.196635e+04
2.007021e+03, 3.979569e+04
2.009028e+03, 4.622646e+04
2.011037e+03, 4.832129e+04
2.013048e+03, 5.162310e+04
2.015062e+03, 5.070741e+04
2.017077e+03, 4.605954e+04
2.019094e+03, 4.878849e+04
2.021113e+03, 4.851658e+04
2.023134e+03, 4.867915e+04
2.025157e+03, 5.305183e+04
2.027182e+03, 4.818587e+04
2.029209e+03, 6.250215e+04
2.031239e+03, 6.187564e+04
2.033270e+03, 6.523238e+04
2.035303e+03, 6.059351e+04
2.037338e+03, 6.644030e+04
2.039376e+03, 6.892832e+04
2.041415e+03, 6.526989e+04
2.043457e+03, 6.604277e+04
2.045500e+03, 6.486001e+04
2.047545e+03, 6.554703e+04
2.049593e+03, 7.351230e+04
2.051643e+03, 7.381856e+04
2.053694e+03, 7.609769e+04
2.055748e+03, 7.615470e+04
2.057804e+03, 9.079464e+04
2.059861e+03, 7.633930e+04
2.061921e+03, 8.066263e+04
2.063983e+03, 8.014973e+04
2.066047e+03, 7.446847e+04
2.068113e+03, 9.325902e+04
2.070181e+03, 8.366901e+04
2.072252e+03, 5.297810e+05
2.074324e+03, 2.784157e+05
2.076398e+03, 2.530050e+05
2.078475e+03, 1.640870e+05
2.080553e+03, 4.693106e+05
2.082634e+03, 4.243438e+05
2.084716e+03, 3.964061e+05
2.086801e+03, 4.790675e+05
2.088888e+03, 7.293389e+05
2.090977e+03, 9.119798e+05
2.093068e+03, 6.681981e+05
2.095161e+03, 3.527683e+05
2.097256e+03, 8.853108e+05
2.099353e+03, 7.714751e+05
2.101452e+03, 7.123850e+05
2.103554e+03, 6.264819e+05
2.105657e+03, 6.245531e+05
2.107763e+03, 6.066346e+05
2.109871e+03, 5.584815e+05
2.111981e+03, 1.228395e+06
2.114093e+03, 8.798385e+05
2.116207e+03, 4.720541e+05
2.118323e+03, 5.829425e+05
2.120441e+03, 9.952384e+05
2.122562e+03, 1.611692e+06
2.124684e+03, 1.077172e+06
2.126809e+03, 7.074472e+05
2.128936e+03, 7.699046e+05
2.131065e+03, 1.287761e+06
2.133196e+03, 1.230175e+06
2.135329e+03, 1.056290e+06
2.137464e+03, 1.094315e+06
2.139602e+03, 1.266874e+06
2.141741e+03, 4.016690e+05
2.143883e+03, 1.216999e+06
2.146027e+03, 1.249338e+06
2.148173e+03, 5.073361e+05
2.150321e+03, 6.566285e+05
2.152472e+03, 1.501025e+06
2.154624e+03, 1.401844e+06
2.156779e+03, 2.056625e+06
2.158935e+03, 1.196513e+06
2.161094e+03, 1.316586e+06
2.163255e+03, 8.054701e+05
2.165419e+03, 1.032051e+06
2.167584e+03, 9.356827e+05
2.169752e+03, 8.354124e+05
2.171921e+03, 1.689370e+06
2.174093e+03, 1.259467e+06
2.176268e+03, 3.136058e+06
2.178444e+03, 4.653463e+05
2.180622e+03, 9.663138e+05
2.182803e+03, 8.963145e+05
2.184986e+03, 1.666616e+06
2.187171e+03, 1.490470e+06
2.189358e+03, 2.747160e+06
2.191547e+03, 2.290273e+06
2.193739e+03, 1.976560e+06
2.195932e+03, 2.771421e+06
2.198128e+03, 2.840622e+06
2.200327e+03, 7.806993e+05
2.202527e+03, 2.477230e+06
2.204729e+03, 1.573951e+06
2.206934e+03, 5.211634e+06
2.209141e+03, 2.900366e+06
2.211350e+03, 2.423050e+06
2.213562e+03, 4.430549e+06
2.215775e+03, 3.423621e+06
2.217991e+03, 1.494145e+06
2.220209e+03, 1.284401e+06
2.222429e+03, 1.510141e+06
2.224651e+03, 3.083085e+06
2.226876e+03, 1.957326e+06
2.229103e+03, 5.392098e+06
2.231332e+03, 3.438391e+06
2.233563e+03, 7.964280e+06
2.235797e+03, 1.262573e+07
2.238033e+03, 1.998079e+06
2.240271e+03, 4.494783e+06
2.242511e+03, 3.393543e+06
2.244754e+03, 5.550969e+06
2.246998e+03, 6.609176e+06
2.249245e+03, 7.247464e+06
2.251495e+03, 8.441241e+06
2.253746e+03, 1.136015e+07
2.256000e+03, 8.655323e+06
2.258256e+03, 1.648790e+06
2.260514e+03, 9.178722e+05
2.262775e+03, 2.122399e+06
2.265037e+03, 3.593555e+06
2.267302e+03, 3.943395e+06
2.269570e+03, 3.369590e+06
2.271839e+03, 8.073808e+06
2.274111e+03, 1.176352e+07
2.276385e+03, 6.294907e+06
2.278662e+03, 9.723373e+06
2.280940e+03, 6.377228e+06
2.283221e+03, 6.637903e+06
2.285504e+03, 6.773597e+06
2.287790e+03, 6.601678e+06
2.290078e+03, 8.247289e+06
2.292368e+03, 1.471160e+07
2.294660e+03, 1.019563e+07
2.296955e+03, 1.605958e+07
2.299252e+03, 7.779579e+06
2.301551e+03, 1.515827e+06
2.303853e+03, 2.335817e+06
2.306156e+03, 4.591622e+06
2.308463e+03, 7.908479e+06
2.310771e+03, 7.655844e+06
2.313082e+03, 9.512220e+06
2.315395e+03, 2.203222e+07
2.317710e+03, 3.292241e+07
2.320028e+03, 1.663959e+07
2.322348e+03, 7.825473e+06
2.324670e+03, 1.339750e+07
2.326995e+03, 1.219991e+07
2.329322e+03, 1.245734e+07
2.331651e+03, 3.317543e+07
2.333983e+03, 2.905499e+07
2.336317e+03, 2.632075e+07
2.338653e+03, 2.696882e+07
2.340992e+03, 4.677127e+07
2.343333e+03, 1.722620e+07
2.345676e+03, 4.073504e+06
2.348022e+03, 4.478319e+06
2.350370e+03, 8.865814e+06
2.352720e+03, 8.397057e+06
2.355073e+03, 8.660333e+06
2.357428e+03, 1.302642e+07
2.359786e+03, 2.220775e+07
2.362145e+03, 2.179802e+07
2.364508e+03, 3.192508e+07
2.366872e+03, 3.871615e+06
2.369239e+03, 1.062739e+07
2.371608e+03, 1.399127e+07
2.373980e+03, 8.401654e+06
2.376354e+03, 2.214835e+07
2.378730e+03, 2.615726e+07
2.381109e+03, 5.756722e+07
2.383490e+03, 5.196295e+07
2.385873e+03, 3.930441e+07
2.388259e+03, 3.094973e+07
2.390648e+03, 2.114867e+07
2.393038e+03, 2.585990e+07
2.395431e+03, 3.326798e+07
2.397827e+03, 4.733780e+07
2.400225e+03, 5.093110e+07
2.402625e+03, 8.224513e+07
2.405027e+03, 1.306033e+08
2.407432e+03, 9.551191e+07
2.409840e+03, 1.297343e+08
2.412250e+03, 5.400557e+07
2.414662e+03, 1.452719e+07
2.417077e+03, 2.346895e+07
2.419494e+03, 2.483742e+07
2.421913e+03, 2.801500e+07
2.424335e+03, 3.816131e+07
2.426759e+03, 7.381881e+07
2.429186e+03, 1.767889e+08
2.431615e+03, 1.484216e+08
2.434047e+03, 7.455270e+07
2.436481e+03, 6.762740e+07
2.438918e+03, 1.196879e+08
2.441356e+03, 1.175985e+08
2.443798e+03, 1.410668e+08
2.446242e+03, 1.837842e+08
2.448688e+03, 2.166168e+08
2.451137e+03, 1.984513e+08
2.453588e+03, 2.775059e+08
2.456041e+03, 3.346120e+08
2.458497e+03, 9.975019e+07
2.460956e+03, 4.795994e+07
2.463417e+03, 3.433705e+07
2.465880e+03, 1.111506e+08
2.468346e+03, 1.843482e+08
2.470814e+03, 1.518872e+08
2.473285e+03, 8.115589e+07
2.475758e+03, 2.087107e+08
2.478234e+03, 2.159279e+08
2.480712e+03, 7.500532e+07
2.483193e+03, 3.049146e+07
2.485676e+03, 3.675565e+07
2.488162e+03, 1.505462e+07
2.490650e+03, 1.511195e+07
2.493141e+03, 4.703220e+07
2.495634e+03, 9.420455e+07
2.498130e+03, 1.179073e+08
2.500628e+03, 9.784545e+07
2.503128e+03, 1.722545e+08
2.505632e+03, 1.975341e+08
2.508137e+03, 1.506292e+08
2.510645e+03, 4.974399e+07
2.513156e+03, 9.248389e+07
2.515669e+03, 1.439512e+08
2.518185e+03, 9.550143e+07
2.520703e+03, 1.566327e+08
2.523224e+03, 5.702394e+07
2.525747e+03, 1.716551e+08
2.528273e+03, 9.605355e+07
2.530801e+03, 1.550817e+08
2.533332e+03, 4.032560e+08
2.535865e+03, 3.881992e+08
2.538401e+03, 6.894830e+08
2.540939e+03, 4.067255e+08
2.543480e+03, 5.625021e+08
2.546024e+03, 2.806712e+08
2.548570e+03, 7.352429e+08
2.551118e+03, 5.850236e+08
2.553669e+03, 1.186547e+09
2.556223e+03, 6.917332e+08
2.558779e+03, 4.666176e+08
2.561338e+03, 6.104751e+08
2.563899e+03, 2.700397e+08
2.566463e+03, 1.913255e+08
2.569030e+03, 3.294254e+08
2.571599e+03, 5.682314e+08
2.574170e+03, 5.947240e+08
2.576745e+03, 4.227655e+08
2.579321e+03, 6.415837e+08
2.581901e+03, 4.683784e+08
2.584483e+03, 4.614265e+08
2.587067e+03, 3.764521e+08
2.589654e+03, 2.279584e+08
2.592244e+03, 3.631001e+08
2.594836e+03, 5.003961e+08
2.597431e+03, 1.168194e+09
2.600028e+03, 7.846964e+08
2.602628e+03, 1.064184e+09
2.605231e+03, 1.392587e+09
2.607836e+03, 7.515059e+08
2.610444e+03, 8.949207e+08
2.613054e+03, 6.425042e+08
2.615667e+03, 1.016870e+09
2.618283e+03, 9.927159e+08
2.620901e+03, 1.418222e+09
2.623522e+03, 1.352429e+09
2.626146e+03, 2.441165e+09
2.628772e+03, 2.141579e+09
2.631401e+03, 2.709147e+09
2.634032e+03, 2.524021e+09
2.636666e+03, 3.155800e+09
2.639303e+03, 5.184156e+09
2.641942e+03, 2.885977e+09
2.644584e+03, 1.717431e+09
2.647229e+03, 1.097695e+09
2.649876e+03, 2.143895e+09
2.652526e+03, 1.840610e+09
2.655178e+03, 4.049499e+09
2.657834e+03, 3.298150e+09
2.660491e+03, 2.054545e+09
2.663152e+03, 2.938172e+09
2.665815e+03, 2.150209e+09
2.668481e+03, 1.933061e+09
2.671149e+03, 1.228329e+09
2.673820e+03, 2.261013e+09
2.676494e+03, 2.982710e+09
2.679171e+03, 2.796167e+09
2.681850e+03, 2.624862e+09
2.684532e+03, 3.983201e+09
2.687216e+03, 3.766256e+09
2.689904e+03, 2.203754e+09
2.692593e+03, 1.855522e+09
2.695286e+03, 1.644330e+09
2.697981e+03, 1.897178e+09
2.700679e+03, 3.119156e+09
2.703380e+03, 3.229839e+09
2.706083e+03, 5.001835e+09
2.708789e+03, 4.435302e+09
2.711498e+03, 4.283966e+09
2.714210e+03, 3.149383e+09
2.716924e+03, 2.313373e+09
2.719641e+03, 4.997717e+08
2.722360e+03, 7.764053e+08
2.725083e+03, 1.477875e+09
2.727808e+03, 2.989218e+09
2.730536e+03, 2.901715e+09
2.733266e+03, 2.380343e+09
2.736000e+03, 2.000639e+09
2.738736e+03, 1.955994e+09
2.741474e+03, 3.263640e+09
2.744216e+03, 1.064523e+09
2.746960e+03, 4.237552e+09
2.749707e+03, 2.844118e+09
2.752457e+03, 3.629399e+09
2.755209e+03, 3.531962e+09
2.757964e+03, 2.984224e+09
2.760722e+03, 5.518016e+09
2.763483e+03, 5.172820e+09
2.766246e+03, 9.460092e+09
2.769013e+03, 6.331676e+09
2.771782e+03, 6.215765e+09
2.774554e+03, 8.144156e+09
2.777328e+03, 9.488178e+09
2.780105e+03, 4.067220e+09
2.782886e+03, 4.774086e+09
2.785668e+03, 7.694846e+09
2.788454e+03, 4.830368e+09
2.791243e+03, 9.365943e+09
2.794034e+03, 7.631523e+09
2.796828e+03, 5.064971e+09
2.799625e+03, 3.938700e+09
2.802424e+03, 5.129372e+09
2.805227e+03, 9.140972e+09
2.808032e+03, 5.613777e+09
2.810840e+03, 9.220458e+09
2.813651e+03, 7.983729e+09
2.816464e+03, 1.111041e+10
2.819281e+03, 9.764213e+09
2.822100e+03, 6.524572e+09
2.824922e+03, 7.539115e+09
2.827747e+03, 6.003514e+09
2.830575e+03, 7.683100e+09
2.833406e+03, 5.490081e+09
2.836239e+03, 4.544223e+09
2.839075e+03, 4.502305e+09
2.841914e+03, 3.674886e+09
2.844756e+03, 2.544432e+09
2.847601e+03, 1.542501e+09
2.850448e+03, 6.641197e+08
2.853299e+03, 1.580779e+08
2.856152e+03, 9.959665e+08
2.859008e+03, 2.118151e+09
2.861867e+03, 3.528388e+09
2.864729e+03, 4.528397e+09
2.867594e+03, 6.108559e+09
2.870462e+03, 7.004448e+09
2.873332e+03, 7.119898e+09
2.876205e+03, 7.589400e+09
2.879082e+03, 1.053045e+10
2.881961e+03, 1.300133e+10
2.884843e+03, 1.801389e+10
2.887727e+03, 2.019321e+10
2.890615e+03, 2.248297e+10
2.893506e+03, 2.333637e+10
2.896399e+03, 2.263273e+10
2.899296e+03, 2.292203e+10
2.902195e+03, 2.108006e+10
2.905097e+03, 2.764071e+10
2.908002e+03, 3.150592e+10
2.910910e+03, 2.523875e+10
2.913821e+03, 2.030460e+10
2.916735e+03, 3.678451e+10
2.919652e+03, 3.778483e+10
2.922571e+03, 4.039549e+10
2.925494e+03, 3.781968e+10
2.928420e+03, 1.623935e+10
2.931348e+03, 2.355379e+10
2.934279e+03, 3.089032e+10
2.937214e+03, 9.053817e+09
2.940151e+03, 2.516584e+10
2.943091e+03, 1.391720e+10
2.946034e+03, 2.085800e+10
2.948980e+03, 9.610149e+09
2.951929e+03, 3.107611e+10
2.954881e+03, 1.153216e+10
2.957836e+03, 1.125511e+10
2.960794e+03, 3.556071e+10
2.963754e+03, 2.885463e+10
2.966718e+03, 5.520969e+09
2.969685e+03, 7.137826e+09
2.972655e+03, 8.051684e+09
2.975627e+03, 1.376196e+10
2.978603e+03, 3.233008e+10
2.981581e+03, 1.911854e+10
2.984563e+03, 6.942877e+09
2.987548e+03, 2.005275e+10
2.990535e+03, 3.712990e+10
2.993526e+03, 1.600408e+10
2.996519e+03, 1.020122e+10
2.999516e+03, 1.685283e+10
3.002515e+03, 5.159715e+09
3.005518e+03, 1.908868e+10
3.008523e+03, 7.408541e+09
3.011532e+03, 2.502637e+10
3.014543e+03, 2.555673e+10
3.017558e+03, 1.694470e+10
3.020575e+03, 3.716253e+09
3.023596e+03, 7.745730e+09
3.026620e+03, 1.015991e+10
3.029646e+03, 3.768478e+10
3.032676e+03, 4.582612e+10
3.035709e+03, 4.242648e+10
3.038744e+03, 1.459270e+10
3.041783e+03, 3.281075e+10
3.044825e+03, 3.632000e+10
3.047870e+03, 1.559487e+10
3.050918e+03, 2.179044e+10
3.053968e+03, 3.863129e+10
3.057022e+03, 3.099495e+10
3.060079e+03, 1.238167e+10
3.063140e+03, 5.992756e+10
3.066203e+03, 7.688248e+10
3.069269e+03, 8.402216e+10
3.072338e+03, 1.125794e+11
3.075410e+03, 7.918927e+10
3.078486e+03, 8.954519e+10
3.081564e+03, 3.321314e+10
3.084646e+03, 3.264516e+10
3.087731e+03, 8.046100e+10
3.090818e+03, 5.039325e+10
3.093909e+03, 1.258109e+10
3.097003e+03, 5.554428e+10
3.100100e+03, 5.444890e+10
3.103200e+03, 5.181608e+10
3.106303e+03, 1.319050e+11
3.109410e+03, 1.854331e+11
3.112519e+03, 1.902062e+11
3.115632e+03, 1.728219e+11
3.118747e+03, 1.760810e+11
3.121866e+03, 1.997507e+11
3.124988e+03, 2.392317e+11
3.128113e+03, 2.625487e+11
3.131241e+03, 1.748393e+11
3.134372e+03, 9.644558e+10
3.137507e+03, 2.085183e+11
3.140644e+03, 2.393712e+11
3.143785e+03, 2.588551e+11
3.146928e+03, 2.445579e+11
3.150075e+03, 3.012552e+11
3.153225e+03, 2.529695e+11
3.156379e+03, 3.489596e+11
3.159535e+03, 2.176591e+11
3.162695e+03, 2.413230e+11
3.165857e+03, 2.924227e+11
3.169023e+03, 3.481523e+11
3.172192e+03, 3.246560e+11
3.175364e+03, 4.392136e+11
3.178540e+03, 4.061383e+11
3.181718e+03, 2.327922e+11
3.184900e+03, 9.887506e+10
3.188085e+03, 2.133104e+11
3.191273e+03, 1.937912e+11
3.194464e+03, 1.382904e+11
3.197659e+03, 2.021921e+11
3.200856e+03, 1.569658e+11
3.204057e+03, 3.394770e+11
3.207261e+03, 3.912077e+11
3.210469e+03, 3.456520e+11
3.213679e+03, 2.500134e+11
3.216893e+03, 2.249500e+11
3.220110e+03, 3.565843e+11
3.223330e+03, 2.655130e+11
3.226553e+03, 1.860783e+11
3.229780e+03, 2.597441e+11
3.233009e+03, 2.405580e+11
3.236242e+03, 1.553686e+11
3.239479e+03, 4.161935e+11
3.242718e+03, 3.290814e+11
3.245961e+03, 2.649507e+11
3.249207e+03, 2.096196e+11
3.252456e+03, 4.504909e+11
3.255708e+03, 5.275099e+11
3.258964e+03, 6.036966e+11
3.262223e+03, 6.526173e+11
3.265485e+03, 4.092599e+11
3.268751e+03, 6.825314e+11
3.272020e+03, 3.880453e+11
3.275292e+03, 3.451568e+11
3.278567e+03, 6.799893e+11
3.281845e+03, 6.825115e+11
3.285127e+03, 5.432194e+11
3.288412e+03, 5.168688e+11
3.291701e+03, 7.065184e+11
3.294993e+03, 7.951387e+11
3.298288e+03, 7.235511e+11
3.301586e+03, 3.845713e+11
3.304887e+03, 2.554013e+11
3.308192e+03, 4.673157e+11
3.311500e+03, 6.211041e+11
3.314812e+03, 5.263452e+11
3.318127e+03, 5.256848e+11
3.321445e+03, 5.362133e+11
3.324766e+03, 5.866615e+11
3.328091e+03, 9.027322e+11
3.331419e+03, 7.527411e+11
3.334751e+03, 5.772087e+11
3.338085e+03, 6.236512e+11
3.341423e+03, 5.389850e+11
3.344765e+03, 5.232697e+11
3.348110e+03, 7.795418e+11
3.351458e+03, 2.806937e+11
3.354809e+03, 4.294162e+11
3.358164e+03, 5.867818e+11
3.361522e+03, 1.972429e+11
3.364884e+03, 5.923301e+11
3.368249e+03, 3.773329e+11
3.371617e+03, 1.319442e+11
3.374988e+03, 3.786850e+11
3.378363e+03, 4.530348e+11
3.381742e+03, 2.717319e+11
3.385124e+03, 5.650078e+11
3.388509e+03, 5.504084e+11
3.391897e+03, 3.056187e+11
3.395289e+03, 3.593724e+11
3.398684e+03, 6.481359e+11
3.402083e+03, 7.058336e+11
3.405485e+03, 5.194314e+11
3.408891e+03, 4.882645e+11
3.412300e+03, 3.545296e+11
3.415712e+03, 9.394652e+10
3.419128e+03, 4.416067e+11
3.422547e+03, 6.038160e+11
3.425969e+03, 3.786735e+11
3.429395e+03, 5.626643e+11
3.432825e+03, 3.420861e+11
3.436257e+03, 2.552059e+11
3.439694e+03, 1.039304e+11
3.443133e+03, 4.716704e+10
3.446576e+03, 1.079482e+11
3.450023e+03, 3.617421e+11
3.453473e+03, 2.372994e+11
3.456927e+03, 4.588374e+11
3.460383e+03, 2.675837e+11
3.463844e+03, 2.595269e+11
3.467308e+03, 1.593574e+11
3.470775e+03, 4.686671e+11
3.474246e+03, 2.745690e+11
3.477720e+03, 1.244116e+11
3.481198e+03, 6.124284e+11
3.484679e+03, 5.333071e+11
3.488164e+03, 4.912915e+11
3.491652e+03, 1.142363e+11
3.495143e+03, 2.644373e+11
3.498639e+03, 2.364642e+11
3.502137e+03, 4.422433e+11
3.505639e+03, 9.236870e+11
3.509145e+03, 7.784422e+11
3.512654e+03, 3.822168e+11
3.516167e+03, 2.195032e+11
3.519683e+03, 5.712664e+11
3.523203e+03, 2.698136e+11
3.526726e+03, 1.119416e+11
3.530253e+03, 5.384760e+11
3.533783e+03, 8.879806e+11
3.537317e+03, 1.147259e+12
3.540854e+03, 1.285625e+12
3.544395e+03, 1.394789e+12
3.547939e+03, 9.862843e+11
3.551487e+03, 1.076527e+12
3.555039e+03, 8.233693e+11
3.558594e+03, 6.322704e+11
3.562152e+03, 7.705995e+11
3.565714e+03, 3.334613e+11
3.569280e+03, 2.982350e+11
3.572849e+03, 3.034915e+11
3.576422e+03, 3.373017e+11
3.579999e+03, 8.865439e+10
3.583579e+03, 2.205319e+11
3.587162e+03, 2.098765e+11
3.590749e+03, 4.512880e+11
3.594340e+03, 1.360248e+11
3.597934e+03, 4.163143e+11
3.601532e+03, 6.998560e+11
3.605134e+03, 2.325256e+11
3.608739e+03, 2.172199e+11
3.612348e+03, 4.654107e+11
3.615960e+03, 8.460934e+11
3.619576e+03, 2.861451e+11
3.623196e+03, 7.145959e+11
3.626819e+03, 9.371371e+11
3.630446e+03, 6.262636e+11
3.634076e+03, 5.286109e+11
3.637710e+03, 7.313282e+11
3.641348e+03, 1.120316e+12
3.644989e+03, 4.437932e+11
3.648634e+03, 2.520342e+11
3.652283e+03, 7.015504e+11
3.655935e+03, 8.986497e+11
3.659591e+03, 1.480843e+12
3.663251e+03, 1.514118e+12
3.666914e+03, 1.770586e+12
3.670581e+03, 1.216964e+12
3.674251e+03, 1.223220e+12
3.677926e+03, 9.650878e+11
3.681604e+03, 3.755534e+11
3.685285e+03, 8.400328e+11
3.688971e+03, 6.617433e+11
3.692660e+03, 1.363941e+12
3.696352e+03, 1.345247e+12
3.700049e+03, 1.453965e+12
3.703749e+03, 7.532670e+11
3.707452e+03, 2.162084e+11
3.711160e+03, 5.399171e+11
3.714871e+03, 6.925271e+11
3.718586e+03, 2.457225e+11
3.722304e+03, 7.537722e+10
3.726027e+03, 4.185714e+11
3.729753e+03, 3.875910e+11
3.733482e+03, 2.436171e+11
3.737216e+03, 8.048635e+10
3.740953e+03, 2.968857e+11
3.744694e+03, 2.409733e+11
3.748439e+03, 9.978083e+10
3.752187e+03, 3.510696e+11
3.755939e+03, 7.579532e+11
3.759695e+03, 4.625681e+11
3.763455e+03, 6.805782e+11
3.767219e+03, 5.683413e+11
3.770986e+03, 1.318531e+12
3.774757e+03, 1.678366e+12
3.778532e+03, 1.712730e+12
3.782310e+03, 2.012999e+12
3.786092e+03, 1.252856e+12
3.789878e+03, 8.209990e+11
3.793668e+03, 1.455047e+12
3.797462e+03, 9.547545e+11
3.801259e+03, 9.140637e+11
3.805061e+03, 1.961276e+12
3.808866e+03, 1.464604e+12
3.812675e+03, 1.316034e+12
3.816487e+03, 7.142085e+11
3.820304e+03, 4.545581e+11
3.824124e+03, 3.123818e+11
3.827948e+03, 3.332467e+11
3.831776e+03, 8.048682e+11
3.835608e+03, 6.577042e+11
3.839444e+03, 8.045999e+11
3.843283e+03, 9.489005e+11
3.847126e+03, 1.404276e+12
3.850973e+03, 8.994311e+11
3.854824e+03, 7.641247e+11
3.858679e+03, 1.823797e+11
3.862538e+03, 3.013461e+11
3.866400e+03, 7.616410e+11
3.870267e+03, 1.389993e+12
3.874137e+03, 9.236902e+11
3.878011e+03, 5.048912e+11
3.881889e+03, 8.323605e+11
3.885771e+03, 4.976371e+11
3.889657e+03, 6.111459e+11
3.893547e+03, 1.286438e+12
3.897440e+03, 6.095318e+11
3.901338e+03, 6.153067e+11
3.905239e+03, 1.092543e+12
3.909144e+03, 1.163250e+12
3.913053e+03, 2.045493e+12
3.916966e+03, 1.629334e+12
3.920883e+03, 6.788217e+11
3.924804e+03, 5.907209e+11
3.928729e+03, 5.615305e+11
3.932658e+03, 4.964712e+11
3.936590e+03, 9.280717e+11
3.940527e+03, 1.269987e+12
3.944467e+03, 3.154542e+11
3.948412e+03, 7.238454e+11
3.952360e+03, 1.462812e+12
3.956313e+03, 1.212792e+12
3.960269e+03, 4.758642e+11
3.964229e+03, 3.571578e+11
3.968194e+03, 7.679115e+11
3.972162e+03, 1.336478e+12
3.976134e+03, 1.939748e+12
3.980110e+03, 2.587885e+12
3.984090e+03, 1.975546e+12
3.988074e+03, 3.050945e+12
3.992062e+03, 2.283200e+12
3.996054e+03, 3.153591e+12
4.000050e+03, 2.106249e+12
4.004050e+03, 3.549891e+12
4.008055e+03, 2.614501e+12
4.012063e+03, 2.756822e+12
4.016075e+03, 4.164664e+12
4.020091e+03, 3.287580e+12
4.024111e+03, 2.677543e+12
4.028135e+03, 2.802544e+12
4.032163e+03, 8.136419e+11
4.036195e+03, 1.290197e+12
4.040231e+03, 3.356498e+12
4.044272e+03, 2.394876e+12
4.048316e+03, 1.520795e+12
4.052364e+03, 3.919339e+12
4.056417e+03, 3.636528e+12
4.060473e+03, 3.385933e+12
4.064533e+03, 1.942494e+12
4.068598e+03, 3.426883e+12
4.072667e+03, 2.388104e+12
4.076739e+03, 3.456015e+12
4.080816e+03, 3.701727e+12
4.084897e+03, 3.871732e+12
4.088982e+03, 5.038804e+12
4.093071e+03, 3.788977e+12
4.097164e+03, 2.955916e+12
4.101261e+03, 2.313343e+12
4.105362e+03, 3.013686e+12
4.109468e+03, 2.961836e+12
4.113577e+03, 2.710482e+12
4.117691e+03, 2.718579e+12
4.121808e+03, 2.881105e+12
4.125930e+03, 3.741885e+12
4.130056e+03, 2.749236e+12
4.134186e+03, 2.062074e+12
4.138320e+03, 3.529150e+12
4.142459e+03, 2.543544e+12
4.146601e+03, 2.484699e+12
4.150748e+03, 3.112120e+12
4.154898e+03, 3.188262e+12
4.159053e+03, 3.414386e+12
4.163212e+03, 3.697420e+12
4.167376e+03, 2.842576e+12
4.171543e+03, 2.672343e+12
4.175714e+03, 2.328353e+12
4.179890e+03, 2.711920e+12
4.184070e+03, 2.608785e+12
4.188254e+03, 2.318001e+12
4.192442e+03, 2.288616e+12
4.196635e+03, 2.246334e+12
4.200831e+03, 1.719700e+12
4.205032e+03, 1.571308e+12
4.209237e+03, 1.408899e+12
4.213447e+03, 1.136017e+12
4.217660e+03, 7.628473e+11
4.221878e+03, 4.947113e+11
4.226100e+03, 1.740443e+11
4.230326e+03, 2.235551e+11
4.234556e+03, 5.383455e+11
4.238791e+03, 9.113806e+11
4.243029e+03, 1.281600e+12
4.247272e+03, 1.621212e+12
4.251520e+03, 1.464856e+12
4.255771e+03, 8.022917e+11
4.260027e+03, 1.774821e+12
4.264287e+03, 2.511830e+12
4.268551e+03, 2.572870e+12
4.272820e+03, 1.563162e+12
4.277093e+03, 1.132137e+12
4.281370e+03, 2.568072e+12
4.285651e+03, 2.051485e+12
4.289937e+03, 1.218564e+12
4.294227e+03, 2.163568e+12
4.298521e+03, 2.457244e+12
4.302819e+03, 1.684923e+12
4.307122e+03, 2.067979e+12
4.311429e+03, 3.080529e+12
4.315741e+03, 3.278964e+12
4.320057e+03, 2.847379e+12
4.324377e+03, 3.380648e+12
4.328701e+03, 3.180556e+12
4.333030e+03, 4.347407e+12
4.337363e+03, 4.174779e+12
4.341700e+03, 3.663323e+12
4.346042e+03, 3.893575e+12
4.350388e+03, 4.570984e+12
4.354738e+03, 3.008477e+12
4.359093e+03, 3.983694e+12
4.363452e+03, 4.632447e+12
4.367815e+03, 4.898976e+12
4.372183e+03, 4.396467e+12
4.376555e+03, 3.323262e+12
4.380932e+03, 3.528701e+12
4.385313e+03, 2.119611e+12
4.389698e+03, 3.819703e+12
4.394088e+03, 4.419590e+12
4.398482e+03, 4.276494e+12
4.402881e+03, 3.906098e+12
4.407283e+03, 2.318088e+12
4.411691e+03, 4.325488e+12
4.416102e+03, 3.871222e+12
4.420518e+03, 5.113275e+12
4.424939e+03, 2.931447e+12
4.429364e+03, 2.762120e+12
4.433793e+03, 3.406323e+12
4.438227e+03, 2.684904e+12
4.442665e+03, 3.646589e+12
4.447108e+03, 4.293228e+12
4.451555e+03, 4.113387e+12
4.456007e+03, 2.050253e+12
4.460463e+03, 3.083101e+12
4.464923e+03, 3.091525e+12
4.469388e+03, 3.881331e+12
4.473857e+03, 4.184404e+12
4.478331e+03, 4.442129e+12
4.482810e+03, 3.845564e+12
4.487292e+03, 4.559486e+12
4.491780e+03, 4.440560e+12
4.496272e+03, 4.034793e+12
4.500768e+03, 5.188688e+12
4.505269e+03, 4.810398e+12
4.509774e+03, 3.893936e+12
4.514284e+03, 3.973156e+12
4.518798e+03, 4.257451e+12
4.523317e+03, 4.524471e+12
4.527840e+03, 3.789031e+12
4.532368e+03, 3.780565e+12
4.536900e+03, 3.284758e+12
4.541437e+03, 5.092798e+12
4.545979e+03, 4.714143e+12
4.550525e+03, 3.972235e+12
4.555075e+03, 3.827736e+12
4.559630e+03, 4.952099e+12
4.564190e+03, 5.383571e+12
4.568754e+03, 5.627501e+12
4.573323e+03, 5.078543e+12
4.577896e+03, 5.147849e+12
4.582474e+03, 4.284577e+12
4.587056e+03, 2.964683e+12
4.591643e+03, 3.014629e+12
4.596235e+03, 2.937002e+12
4.600831e+03, 3.386314e+12
4.605432e+03, 3.556073e+12
4.610038e+03, 3.255640e+12
4.614648e+03, 4.794249e+12
4.619262e+03, 4.435384e+12
4.623882e+03, 4.855300e+12
4.628505e+03, 2.964962e+12
4.633134e+03, 2.966088e+12
4.637767e+03, 3.044832e+12
4.642405e+03, 3.219262e+12
4.647047e+03, 3.315131e+12
4.651694e+03, 3.314645e+12
4.656346e+03, 3.751961e+12
4.661002e+03, 5.012725e+12
4.665663e+03, 4.519984e+12
4.670329e+03, 2.965861e+12
4.674999e+03, 2.997307e+12
4.679674e+03, 3.420424e+12
4.684354e+03, 3.011617e+12
4.689038e+03, 3.966373e+12
4.693727e+03, 4.218328e+12
4.698421e+03, 4.278930e+12
4.703120e+03, 4.742671e+12
4.707823e+03, 4.946053e+12
4.712530e+03, 4.447310e+12
4.717243e+03, 3.259608e+12
4.721960e+03, 3.646255e+12
4.726682e+03, 4.160827e+12
4.731409e+03, 4.310447e+12
4.736140e+03, 4.364203e+12
4.740876e+03, 4.276015e+12
4.745617e+03, 4.555841e+12
4.750363e+03, 4.851595e+12
4.755113e+03, 4.667236e+12
4.759868e+03, 3.690303e+12
4.764628e+03, 1.796214e+12
4.769393e+03, 1.863604e+12
4.774162e+03, 2.149684e+12
4.778936e+03, 2.509788e+12
4.783715e+03, 2.550857e+12
4.788499e+03, 2.515991e+12
4.793288e+03, 3.152552e+12
4.798081e+03, 3.750431e+12
4.802879e+03, 3.818363e+12
4.807682e+03, 1.980956e+12
4.812490e+03, 1.971185e+12
4.817302e+03, 2.452559e+12
4.822119e+03, 2.938268e+12
4.826941e+03, 2.945123e+12
4.831768e+03, 3.143847e+12
4.836600e+03, 3.708984e+12
4.841437e+03, 3.823655e+12
4.846278e+03, 4.517500e+12
4.851124e+03, 3.108415e+12
4.855976e+03, 3.192922e+12
4.860832e+03, 3.905066e+12
4.865692e+03, 4.107392e+12
4.870558e+03, 4.405674e+12
4.875429e+03, 4.431653e+12
4.880304e+03, 4.686338e+12
4.885184e+03, 5.301690e+12
4.890070e+03, 5.761968e+12
4.894960e+03, 5.379367e+12
4.899855e+03, 5.437641e+12
4.904754e+03, 5.396530e+12
4.909659e+03, 5.604919e+12
4.914569e+03, 6.126915e+12
4.919483e+03, 6.355194e+12
4.924403e+03, 6.765805e+12
4.929327e+03, 6.956131e+12
4.934257e+03, 7.840381e+12
4.939191e+03, 7.416733e+12
4.944130e+03, 6.995173e+12
4.949074e+03, 7.453095e+12
4.954023e+03, 6.834605e+12
4.958977e+03, 1.646448e+12
4.963936e+03, 2.025033e+12
4.968900e+03, 2.691069e+12
4.973869e+03, 2.704987e+12
4.978843e+03, 3.020947e+12
4.983822e+03, 3.197019e+12
4.988806e+03, 3.718595e+12
4.993794e+03, 3.640033e+12
4.998788e+03, 3.437077e+12
5.003787e+03, 2.354912e+12
5.008791e+03, 2.310383e+12
5.013800e+03, 2.386414e+12
5.018813e+03, 2.827034e+12
5.023832e+03, 2.737832e+12
5.028856e+03, 3.142120e+12
5.033885e+03, 4.128833e+12
5.038919e+03, 3.762566e+12
5.043958e+03, 3.458987e+12
5.049002e+03, 4.038453e+12
5.054051e+03, 3.891006e+12
5.059105e+03, 3.756119e+12
5.064164e+03, 3.873638e+12
5.069228e+03, 4.383748e+12
5.074297e+03, 4.635222e+12
5.079372e+03, 4.405945e+12
5.084451e+03, 4.972267e+12
5.089535e+03, 4.741966e+12
5.094625e+03, 4.663017e+12
5.099720e+03, 4.592337e+12
5.104819e+03, 5.230454e+12
5.109924e+03, 4.858011e+12
5.115034e+03, 6.386976e+12
5.120149e+03, 5.181251e+12
5.125269e+03, 5.286986e+12
5.130394e+03, 4.664971e+12
5.135525e+03, 7.057978e+12
5.140660e+03, 6.334857e+12
5.145801e+03, 5.030783e+12
5.150947e+03, 5.116883e+12
5.156098e+03, 4.706905e+12
5.161254e+03, 8.837606e+12
5.166415e+03, 6.123177e+12
5.171582e+03, 1.377080e+12
5.176753e+03, 1.965106e+12
5.181930e+03, 1.884061e+12
5.187112e+03, 2.861145e+12
5.192299e+03, 3.261011e+12
5.197491e+03, 3.744375e+12
5.202689e+03, 4.000027e+12
5.207891e+03, 2.330128e+12
5.213099e+03, 4.345971e+12
5.218312e+03, 6.342621e+12
5.223531e+03, 7.417439e+12
5.228754e+03, 6.140504e+12
5.233983e+03, 7.998432e+12
5.239217e+03, 7.877346e+12
5.244456e+03, 5.744389e+12
5.249701e+03, 5.885891e+12
5.254950e+03, 7.462410e+12
5.260205e+03, 7.855971e+12
5.265465e+03, 4.966975e+12
5.270731e+03, 4.627362e+12
5.276002e+03, 7.479021e+12
5.281278e+03, 8.128368e+12
5.286559e+03, 8.660086e+12
5.291846e+03, 9.237865e+12
5.297137e+03, 8.316693e+12
5.302435e+03, 8.972926e+12
5.307737e+03, 1.047459e+13
5.313045e+03, 8.248616e+12
5.318358e+03, 8.735660e+12
5.323676e+03, 8.643254e+12
5.329000e+03, 6.074774e+12
5.334329e+03, 8.700672e+12
5.339663e+03, 9.359649e+12
5.345003e+03, 8.568164e+12
5.350348e+03, 8.902614e+12
5.355698e+03, 1.086220e+13
5.361054e+03, 8.653093e+12
5.366415e+03, 8.544446e+12
5.371781e+03, 7.338459e+12
5.377153e+03, 9.669671e+12
5.382530e+03, 1.035735e+13
5.387913e+03, 1.097404e+13
5.393301e+03, 9.867058e+12
5.398694e+03, 8.230446e+12
5.404093e+03, 9.655292e+12
5.409497e+03, 7.606392e+12
5.414906e+03, 1.054331e+13
5.420321e+03, 1.120015e+13
5.425741e+03, 1.035605e+13
5.431167e+03, 9.048398e+12
5.436598e+03, 9.585817e+12
5.442035e+03, 1.150992e+13
5.447477e+03, 8.407621e+12
5.452924e+03, 4.050180e+12
5.458377e+03, 4.374299e+12
5.463836e+03, 5.367518e+12
5.469300e+03, 6.132596e+12
5.474769e+03, 6.384112e+12
5.480244e+03, 6.773061e+12
5.485724e+03, 7.202077e+12
5.491210e+03, 7.889773e+12
5.496701e+03, 7.018560e+12
5.502198e+03, 5.332504e+12
5.507700e+03, 5.902117e+12
5.513207e+03, 6.127142e+12
5.518721e+03, 6.946018e+12
5.524239e+03, 7.720112e+12
5.529764e+03, 8.096225e+12
5.535293e+03, 7.654621e+12
5.540829e+03, 8.565218e+12
5.546370e+03, 8.628587e+12
5.551916e+03, 8.385694e+12
5.557468e+03, 9.435189e+12
5.563025e+03, 9.499162e+12
5.568588e+03, 8.863954e+12
5.574157e+03, 8.925442e+12
5.579731e+03, 9.240444e+12
5.585311e+03, 8.898200e+12
5.590896e+03, 7.506575e+12
5.596487e+03, 7.901676e+12
5.602083e+03, 5.296480e+12
5.607686e+03, 6.320502e+12
5.613293e+03, 6.475238e+12
5.618907e+03, 6.022893e+12
5.624525e+03, 6.682310e+12
5.630150e+03, 6.211872e+12
5.635780e+03, 6.547870e+12
5.641416e+03, 6.291077e+12
5.647057e+03, 6.949970e+12
5.652704e+03, 7.909066e+12
5.658357e+03, 8.119183e+12
5.664015e+03, 6.605480e+12
5.669679e+03, 6.998853e+12
5.675349e+03, 7.278292e+12
5.681024e+03, 8.224569e+12
5.686705e+03, 7.816524e+12
5.692392e+03, 8.753362e+12
5.698085e+03, 8.757725e+12
5.703783e+03, 8.588467e+12
5.709486e+03, 8.680090e+12
5.715196e+03, 8.983753e+12
5.720911e+03, 9.924173e+12
5.726632e+03, 9.585315e+12
5.732359e+03, 1.033752e+13
5.738091e+03, 1.090572e+13
5.743829e+03, 1.118806e+13
5.749573e+03, 1.131187e+13
5.755323e+03, 1.135573e+13
5.761078e+03, 9.039373e+12
5.766839e+03, 8.432464e+12
5.772606e+03, 9.000982e+12
5.778378e+03, 9.764144e+12
5.784157e+03, 1.019139e+13
5.789941e+03, 1.043954e+13
5.795731e+03, 1.096264e+13
5.801527e+03, 1.101639e+13
5.807328e+03, 1.121603e+13
5.813135e+03, 9.100005e+12
5.818949e+03, 9.049615e+12
5.824768e+03, 9.649568e+12
5.830592e+03, 9.824693e+12
5.836423e+03, 1.001146e+13
5.842259e+03, 9.460643e+12
5.848102e+03, 8.515150e+12
5.853950e+03, 6.950219e+12
5.859804e+03, 6.870515e+12
5.865663e+03, 6.049574e+12
5.871529e+03, 5.702723e+12
5.877401e+03, 4.591472e+12
5.883278e+03, 3.883390e+12
5.889161e+03, 2.105171e+12
5.895050e+03, 1.789902e+12
5.900945e+03, 2.711551e+12
5.906846e+03, 3.885771e+12
5.912753e+03, 4.451435e+12
5.918666e+03, 4.867950e+12
5.924585e+03, 4.965070e+12
5.930509e+03, 5.309324e+12
5.936440e+03, 5.934298e+12
5.942376e+03, 6.329251e+12
5.948319e+03, 5.941605e+12
5.954267e+03, 6.025977e+12
5.960221e+03, 5.891657e+12
5.966181e+03, 6.479120e+12
5.972148e+03, 6.734008e+12
5.978120e+03, 6.801873e+12
5.984098e+03, 7.507679e+12
5.990082e+03, 8.004661e+12
5.996072e+03, 8.015451e+12
6.002068e+03, 8.170164e+12
6.008070e+03, 7.907771e+12
6.014078e+03, 8.912126e+12
6.020092e+03, 9.065603e+12
6.026112e+03, 9.826859e+12
6.032139e+03, 1.029702e+13
6.038171e+03, 1.055619e+13
6.044209e+03, 1.053458e+13
6.050253e+03, 1.129954e+13
6.056303e+03, 1.157713e+13
6.062360e+03, 1.185523e+13
6.068422e+03, 1.198287e+13
6.074490e+03, 1.327711e+13
6.080565e+03, 1.372176e+13
6.086645e+03, 1.437096e+13
6.092732e+03, 1.341611e+13
6.098825e+03, 1.351425e+13
6.104924e+03, 1.122013e+13
6.111029e+03, 1.318946e+13
6.117140e+03, 1.442763e+13
6.123257e+03, 1.100193e+13
6.129380e+03, 1.427210e+13
6.135509e+03, 1.484559e+13
6.141645e+03, 1.546390e+13
6.147787e+03, 1.559796e+13
6.153934e+03, 1.218839e+13
6.160088e+03, 8.631165e+12
6.166248e+03, 5.807802e+12
6.172415e+03, 7.139580e+12
6.178587e+03, 7.028384e+12
6.184766e+03, 7.545508e+12
6.190950e+03, 5.395411e+12
6.197141e+03, 5.882370e+12
6.203338e+03, 6.502235e+12
6.209542e+03, 7.351930e+12
6.215751e+03, 5.379913e+12
6.221967e+03, 5.539214e+12
6.228189e+03, 4.465796e+12
6.234417e+03, 5.136533e+12
6.240652e+03, 5.282050e+12
6.246892e+03, 5.551223e+12
6.253139e+03, 6.435192e+12
6.259392e+03, 6.602267e+12
6.265652e+03, 7.160116e+12
6.271917e+03, 7.346364e+12
6.278189e+03, 7.134910e+12
6.284467e+03, 7.574541e+12
6.290752e+03, 7.894671e+12
6.297043e+03, 7.770014e+12
6.303340e+03, 8.557333e+12
6.309643e+03, 8.632207e+12
6.315953e+03, 9.933145e+12
6.322269e+03, 9.082634e+12
6.328591e+03, 9.441189e+12
6.334920e+03, 9.839393e+12
6.341254e+03, 1.074743e+13
6.347596e+03, 1.160270e+13
6.353943e+03, 1.050322e+13
6.360297e+03, 8.708817e+12
6.366658e+03, 9.106966e+12
6.373024e+03, 9.336415e+12
6.379397e+03, 8.947148e+12
6.385777e+03, 8.462867e+12
6.392162e+03, 8.318096e+12
6.398555e+03, 9.835164e+12
6.404953e+03, 1.041094e+13
6.411358e+03, 1.202581e+13
6.417769e+03, 1.075702e+13
6.424187e+03, 1.035991e+13
6.430611e+03, 1.063078e+13
6.437042e+03, 1.130226e+13
6.443479e+03, 1.145576e+13
6.449923e+03, 1.187633e+13
6.456372e+03, 1.228450e+13
6.462829e+03, 1.140612e+13
6.469292e+03, 1.429683e+13
6.475761e+03, 1.479879e+13
6.482237e+03, 1.354824e+13
6.488719e+03, 1.214440e+13
6.495208e+03, 1.175568e+13
6.501703e+03, 1.333115e+13
6.508205e+03, 1.535044e+13
6.514713e+03, 1.480991e+13
6.521227e+03, 1.538148e+13
6.527749e+03, 1.631111e+13
6.534276e+03, 1.666164e+13
6.540811e+03, 1.787353e+13
6.547352e+03, 1.592505e+13
6.553899e+03, 1.464105e+13
6.560453e+03, 1.533986e+13
6.567013e+03, 1.511297e+13
6.573580e+03, 1.398291e+13
6.580154e+03, 1.467037e+13
6.586734e+03, 1.559979e+13
6.593321e+03, 1.554139e+13
6.599914e+03, 1.556547e+13
6.606514e+03, 1.558464e+13
6.613120e+03, 1.476804e+13
6.619734e+03, 1.422490e+13
6.626353e+03, 1.373815e+13
6.632980e+03, 1.428442e+13
6.639613e+03, 1.374666e+13
6.646252e+03, 1.417635e+13
6.652899e+03, 1.061482e+13
6.659551e+03, 9.926740e+12
6.666211e+03, 1.128351e+13
6.672877e+03, 1.163334e+13
6.679550e+03, 1.074735e+13
6.686230e+03, 7.541792e+12
6.692916e+03, 9.129327e+12
6.699609e+03, 9.521888e+12
6.706308e+03, 9.162269e+12
6.713015e+03, 8.983932e+12
6.719728e+03, 6.508511e+12
6.726447e+03, 6.881099e+12
6.733174e+03, 7.576729e+12
6.739907e+03, 7.857817e+12
6.746647e+03, 8.046053e+12
6.753394e+03, 7.051872e+12
6.760147e+03, 7.696728e+12
6.766907e+03, 8.605071e+12
6.773674e+03, 9.537474e+12
6.780448e+03, 8.780158e+12
6.787228e+03, 6.787526e+12
6.794015e+03, 7.444793e+12
6.800809e+03, 8.090593e+12
6.807610e+03, 8.479521e+12
6.814418e+03, 8.658692e+12
6.821232e+03, 8.543138e+12
6.828053e+03, 8.744227e+12
6.834882e+03, 9.127985e+12
6.841716e+03, 9.211950e+12
6.848558e+03, 9.384825e+12
6.855407e+03, 7.891014e+12
6.862262e+03, 7.912208e+12
6.869124e+03, 8.698424e+12
6.875994e+03, 9.287650e+12
6.882869e+03, 9.326483e+12
6.889752e+03, 9.080316e+12
6.896642e+03, 9.980065e+12
6.903539e+03, 9.867345e+12
6.910442e+03, 1.119394e+13
6.917353e+03, 1.084657e+13
6.924270e+03, 1.153339e+13
6.931194e+03, 1.246399e+13
6.938126e+03, 1.271414e+13
6.945064e+03, 1.423857e+13
6.952009e+03, 1.505078e+13
6.958961e+03, 1.488187e+13
6.965920e+03, 1.595406e+13
6.972886e+03, 1.625711e+13
6.979859e+03, 1.602974e+13
6.986838e+03, 1.829594e+13
6.993825e+03, 1.613035e+13
7.000819e+03, 1.719071e+13
7.007820e+03, 1.781763e+13
7.014828e+03, 1.880491e+13
7.021843e+03, 1.952577e+13
7.028864e+03, 2.271603e+13
7.035893e+03, 2.067572e+13
7.042929e+03, 2.522154e+13
7.049972e+03, 2.735085e+13
7.057022e+03, 1.625669e+13
7.064079e+03, 1.105665e+13
7.071143e+03, 1.417084e+13
7.078214e+03, 1.517920e+13
7.085292e+03, 1.597614e+13
7.092378e+03, 8.143690e+12
7.099470e+03, 8.817540e+12
7.106570e+03, 1.047541e+13
7.113676e+03, 1.154846e+13
7.120790e+03, 1.362971e+13
7.127911e+03, 8.436391e+12
7.135039e+03, 6.711760e+12
7.142174e+03, 7.498196e+12
7.149316e+03, 8.185010e+12
7.156465e+03, 9.831624e+12
7.163622e+03, 8.523300e+12
7.170785e+03, 9.600329e+12
7.177956e+03, 1.103087e+13
7.185134e+03, 1.209973e+13
7.192319e+03, 1.293642e+13
7.199511e+03, 1.115064e+13
7.206711e+03, 1.057699e+13
7.213918e+03, 1.133895e+13
7.221132e+03, 1.286164e+13
7.228353e+03, 1.401896e+13
7.235581e+03, 1.456769e+13
7.242817e+03, 1.534479e+13
7.250059e+03, 1.735737e+13
7.257309e+03, 1.851819e+13
7.264567e+03, 1.935875e+13
7.271831e+03, 1.848105e+13
7.279103e+03, 1.968534e+13
7.286382e+03, 2.075187e+13
7.293669e+03, 2.163840e+13
7.300962e+03, 2.347975e+13
7.308263e+03, 2.377240e+13
7.315572e+03, 2.514007e+13
7.322887e+03, 2.613257e+13
7.330210e+03, 2.494268e+13
7.337540e+03, 2.773885e+13
7.344878e+03, 2.765272e+13
7.352223e+03, 2.849694e+13
7.359575e+03, 2.866875e+13
7.366934e+03, 3.018022e+13
7.374301e+03, 3.138285e+13
7.381676e+03, 3.147036e+13
7.389057e+03, 3.212404e+13
7.396446e+03, 3.273711e+13
7.403843e+03, 3.202465e+13
7.411247e+03, 3.361833e+13
7.418658e+03, 3.257372e+13
7.426077e+03, 3.265931e+13
7.433503e+03, 3.406083e+13
7.440936e+03, 3.411569e+13
7.448377e+03, 3.322082e+13
7.455825e+03, 3.404828e+13
7.463281e+03, 3.338780e+13
7.470745e+03, 3.481504e+13
7.478215e+03, 3.516161e+13
7.485694e+03, 3.427476e+13
7.493179e+03, 3.412158e+13
7.500672e+03, 3.464554e+13
7.508173e+03, 3.524963e+13
7.515681e+03, 3.504621e+13
7.523197e+03, 3.569818e+13
7.530720e+03, 3.464646e+13
7.538251e+03, 3.562251e+13
7.545789e+03, 3.701876e+13
7.553335e+03, 3.664799e+13
7.560888e+03, 3.737376e+13
7.568449e+03, 3.644605e+13
7.576018e+03, 3.525149e+13
7.583594e+03, 3.759918e+13
7.591177e+03, 2.997239e+13
7.598768e+03, 2.938873e+13
7.606367e+03, 2.954182e+13
7.613973e+03, 2.980771e+13
7.621587e+03, 3.241745e+13
7.629209e+03, 2.704035e+13
7.636838e+03, 2.530162e+13
7.644475e+03, 2.575153e+13
7.652120e+03, 2.599097e+13
7.659772e+03, 2.429964e+13
7.667431e+03, 1.277797e+13
7.675099e+03, 1.809138e+13
7.682774e+03, 2.000065e+13
7.690457e+03, 2.088227e+13
7.698147e+03, 1.588058e+13
7.705845e+03, 1.818025e+13
7.713551e+03, 2.096600e+13
7.721265e+03, 2.213224e+13
7.728986e+03, 2.382007e+13
7.736715e+03, 2.558499e+13
7.744452e+03, 2.445864e+13
7.752196e+03, 2.069349e+13
7.759948e+03, 2.157503e+13
7.767708e+03, 2.238222e+13
7.775476e+03, 2.364342e+13
7.783252e+03, 2.253653e+13
7.791035e+03, 2.271506e+13
7.798826e+03, 2.352601e+13
7.806625e+03, 2.565213e+13
7.814431e+03, 2.690923e+13
7.822246e+03, 2.595693e+13
7.830068e+03, 2.404297e+13
7.837898e+03, 2.441844e+13
7.845736e+03, 2.470461e+13
7.853582e+03, 2.632013e+13
7.861435e+03, 2.691977e+13
7.869297e+03, 2.669759e+13
7.877166e+03, 2.826736e+13
7.885043e+03, 2.937496e+13
7.892928e+03, 3.016867e+13
7.900821e+03, 3.033410e+13
7.908722e+03, 2.919875e+13
7.916631e+03, 2.855636e+13
7.924547e+03, 2.958878e+13
7.932472e+03, 3.078109e+13
7.940404e+03, 3.075699e+13
7.948345e+03, 3.079079e+13
7.956293e+03, 3.259477e+13
7.964249e+03, 3.357222e+13
7.972214e+03, 3.428542e+13
7.980186e+03, 3.389027e+13
7.988166e+03, 3.344751e+13
7.996154e+03, 3.411806e+13
8.004150e+03, 3.438967e+13
8.012154e+03, 3.531531e+13
8.020167e+03, 3.609664e+13
8.028187e+03, 3.588144e+13
8.036215e+03, 3.671078e+13
8.044251e+03, 3.700268e+13
8.052295e+03, 3.673306e+13
8.060348e+03, 3.788578e+13
8.068408e+03, 3.732213e+13
8.076476e+03, 3.748011e+13
8.084553e+03, 3.868253e+13
8.092637e+03, 3.901628e+13
8.100730e+03, 3.986300e+13
8.108831e+03, 4.004299e+13
8.116940e+03, 3.855582e+13
8.125057e+03, 3.903563e+13
8.133182e+03, 4.126830e+13
8.141315e+03, 4.113851e+13
8.149456e+03, 4.190294e+13
8.157606e+03, 4.176303e+13
8.165763e+03, 4.077927e+13
8.173929e+03, 4.114108e+13
8.182103e+03, 3.259721e+13
8.190285e+03, 3.424006e+13
8.198475e+03, 2.641070e+13
8.206674e+03, 3.577548e+13
8.214880e+03, 3.771341e+13
8.223095e+03, 3.800597e+13
8.231318e+03, 3.941649e+13
8.239550e+03, 3.990911e+13
8.247789e+03, 3.998481e+13
8.256037e+03, 3.891125e+13
8.264293e+03, 4.012811e+13
8.272557e+03, 3.794606e+13
8.280830e+03, 3.763154e+13
8.289111e+03, 3.723388e+13
8.297400e+03, 3.750184e+13
8.305697e+03, 3.668783e+13
8.314003e+03, 3.761323e+13
8.322317e+03, 3.813850e+13
8.330639e+03, 3.668173e+13
8.338970e+03, 3.734611e+13
8.347309e+03, 3.692957e+13
8.355656e+03, 3.661814e+13
8.364012e+03, 3.665259e+13
8.372376e+03, 3.758527e+13
8.380748e+03, 3.577096e+13
8.389129e+03, 3.378758e+13
8.397518e+03, 3.662251e+13
8.405916e+03, 3.799176e+13
8.414322e+03, 3.696262e+13
8.422736e+03, 3.668776e+13
8.431159e+03, 3.550715e+13
8.439590e+03, 2.957845e+13
8.448029e+03, 2.908977e+13
8.456477e+03, 2.642877e+13
8.464934e+03, 2.748380e+13
8.473399e+03, 2.624214e+13
8.481872e+03, 2.861519e+13
8.490354e+03, 2.948324e+13
8.498845e+03, 2.900517e+13
8.507343e+03, 2.913559e+13
8.515851e+03, 2.861080e+13
8.524367e+03, 2.912829e+13
8.532891e+03, 2.952793e+13
8.541424e+03, 2.917382e+13
8.549965e+03, 3.151454e+13
8.558515e+03, 3.235295e+13
8.567074e+03, 3.294527e+13
8.575641e+03, 3.303268e+13
8.584216e+03, 3.343038e+13
8.592801e+03, 3.370792e+13
8.601393e+03, 3.430769e+13
8.609995e+03, 3.458636e+13
8.618605e+03, 3.555961e+13
8.627223e+03, 3.640600e+13
8.635851e+03, 3.638288e+13
8.644486e+03, 3.706463e+13
8.653131e+03, 3.681014e+13
8.661784e+03, 3.442438e+13
8.670446e+03, 3.753846e+13
8.679116e+03, 3.667621e+13
8.687795e+03, 3.546639e+13
8.696483e+03, 3.470723e+13
8.705180e+03, 3.543436e+13
8.713885e+03, 3.443674e+13
8.722599e+03, 3.538663e+13
8.731321e+03, 3.732744e+13
8.740053e+03, 3.618326e+13
8.748793e+03, 3.788093e+13
8.757542e+03, 3.840689e+13
8.766299e+03, 3.865138e+13
8.775065e+03, 4.068311e+13
8.783840e+03, 3.969810e+13
8.792624e+03, 4.075514e+13
8.801417e+03, 3.866045e+13
8.810218e+03, 3.854157e+13
8.819029e+03, 4.222618e+13
8.827848e+03, 3.781122e+13
8.836675e+03, 4.238371e+13
8.845512e+03, 4.146277e+13
8.854358e+03, 4.190972e+13
8.863212e+03, 3.309888e+13
8.872075e+03, 3.135622e+13
8.880947e+03, 3.256691e+13
8.889828e+03, 3.292700e+13
8.898718e+03, 3.390439e+13
8.907617e+03, 3.594290e+13
8.916524e+03, 3.560668e+13
8.925441e+03, 3.669386e+13
8.934366e+03, 3.581211e+13
8.943301e+03, 3.466370e+13
8.952244e+03, 3.485678e+13
8.961196e+03, 3.535928e+13
8.970157e+03, 3.582095e+13
8.979128e+03, 3.621854e+13
8.988107e+03, 3.801821e+13
8.997095e+03, 3.829934e+13
9.006092e+03, 3.771508e+13
9.015098e+03, 3.726295e+13
9.024113e+03, 3.695856e+13
9.033137e+03, 3.723341e+13
9.042170e+03, 3.881960e+13
9.051213e+03, 3.902303e+13
9.060264e+03, 3.810609e+13
9.069324e+03, 3.945658e+13
9.078393e+03, 3.982377e+13
9.087472e+03, 3.852199e+13
9.096559e+03, 4.050874e+13
9.105656e+03, 4.070460e+13
9.114761e+03, 4.191156e+13
9.123876e+03, 4.143201e+13
9.133000e+03, 4.192020e+13
9.142133e+03, 4.143998e+13
9.151275e+03, 4.171087e+13
9.160426e+03, 4.292837e+13
9.169587e+03, 4.320114e+13
9.178757e+03, 4.190498e+13
9.187935e+03, 4.395071e+13
9.197123e+03, 4.358361e+13
9.206320e+03, 4.230227e+13
9.215527e+03, 4.185671e+13
9.224742e+03, 3.987671e+13
9.233967e+03, 3.889600e+13
9.243201e+03, 4.072555e+13
9.252444e+03, 3.953222e+13
9.261697e+03, 4.014132e+13
9.270958e+03, 4.080671e+13
9.280229e+03, 3.948790e+13
9.289509e+03, 3.951696e+13
9.298799e+03, 3.797600e+13
9.308098e+03, 3.857031e+13
9.317406e+03, 3.881817e+13
9.326723e+03, 3.820718e+13
9.336050e+03, 3.941036e+13
9.345386e+03, 3.979660e+13
9.354731e+03, 3.877568e+13
9.364086e+03, 3.855137e+13
9.373450e+03, 3.917010e+13
9.382824e+03, 3.909588e+13
9.392206e+03, 3.885756e+13
9.401599e+03, 3.885106e+13
9.411000e+03, 4.018354e+13
9.420411e+03, 3.996710e+13
9.429832e+03, 4.062854e+13
9.439262e+03, 4.032222e+13
9.448701e+03, 3.959988e+13
9.458149e+03, 4.064949e+13
9.467608e+03, 3.980576e+13
9.477075e+03, 4.159066e+13
9.486552e+03, 4.126532e+13
9.496039e+03, 4.130082e+13
9.505535e+03, 4.155804e+13
9.515040e+03, 4.102276e+13
9.524555e+03, 4.211568e+13
9.534080e+03, 4.194427e+13
9.543614e+03, 4.157046e+13
9.553158e+03, 4.121309e+13
9.562711e+03, 4.205804e+13
9.572274e+03, 4.258198e+13
9.581846e+03, 4.300561e+13
9.591428e+03, 4.293101e+13
9.601019e+03, 4.021861e+13
9.610620e+03, 4.270761e+13
9.620231e+03, 4.308083e+13
9.629851e+03, 4.333209e+13
9.639481e+03, 3.980172e+13
9.649120e+03, 4.136477e+13
9.658769e+03, 4.283484e+13
9.668428e+03, 4.296412e+13
9.678097e+03, 4.078768e+13
9.687775e+03, 4.186008e+13
9.697463e+03, 4.373199e+13
9.707160e+03, 4.091966e+13
9.716867e+03, 4.283857e+13
9.726584e+03, 4.042182e+13
9.736311e+03, 4.183349e+13
9.746047e+03, 4.002728e+13
9.755793e+03, 4.196685e+13
9.765549e+03, 4.262273e+13
9.775314e+03, 4.063585e+13
9.785090e+03, 3.983674e+13
9.794875e+03, 4.100729e+13
9.804670e+03, 4.275904e+13
9.814474e+03, 4.162384e+13
9.824289e+03, 4.165133e+13
9.834113e+03, 4.091494e+13
9.843947e+03, 4.148477e+13
9.853791e+03, 4.227926e+13
9.863645e+03, 4.199491e+13
9.873509e+03, 4.213494e+13
9.883382e+03, 4.322503e+13
9.893265e+03, 4.218711e+13
9.903159e+03, 2.979235e+13
9.913062e+03, 2.547162e+13
9.922975e+03, 2.692152e+13
9.932898e+03, 2.906673e+13
9.942831e+03, 3.281518e+13
9.952774e+03, 3.515822e+13
9.962726e+03, 3.432676e+13
9.972689e+03, 3.254407e+13
9.982662e+03, 3.337011e+13
9.992644e+03, 3.330773e+13
1.000264e+04, 3.359642e+13
1.001264e+04, 3.380882e+13
1.002265e+04, 3.548707e+13
1.003268e+04, 3.660559e+13
1.004271e+04, 3.498183e+13
1.005275e+04, 3.285072e+13
1.006280e+04, 3.140060e+13
1.007287e+04, 3.619359e+13
1.008294e+04, 3.800636e+13
1.009302e+04, 3.480604e+13
1.010311e+04, 3.885285e+13
1.011322e+04, 3.557021e+13
1.012333e+04, 3.667942e+13
1.013345e+04, 3.656044e+13
1.014359e+04, 3.612192e+13
1.015373e+04, 3.673785e+13
1.016389e+04, 3.390310e+13
1.017405e+04, 3.793264e+13
1.018422e+04, 3.456221e+13
1.019441e+04, 3.658431e+13
1.020460e+04, 3.634760e+13
1.021481e+04, 3.810889e+13
1.022502e+04, 3.556833e+13
1.023525e+04, 3.708346e+13
1.024548e+04, 3.960989e+13
1.025573e+04, 3.461842e+13
1.026598e+04, 3.120408e+13
1.027625e+04, 3.332880e+13
1.028652e+04, 3.374431e+13
1.029681e+04, 3.474900e+13
1.030711e+04, 3.556617e+13
1.031742e+04, 3.587316e+13
1.032773e+04, 3.607120e+13
1.033806e+04, 3.460691e+13
1.034840e+04, 3.429457e+13
1.035875e+04, 3.678345e+13
1.036911e+04, 3.825801e+13
1.037947e+04, 3.667175e+13
1.038985e+04, 3.634846e+13
1.040024e+04, 3.618633e+13
1.041064e+04, 3.896854e+13
1.042106e+04, 3.683408e+13
1.043148e+04, 3.400919e+13
1.044191e+04, 3.878440e+13
1.045235e+04, 3.977883e+13
1.046280e+04, 4.044218e+13
1.047326e+04, 3.349061e+13
1.048374e+04, 3.747045e+13
1.049422e+04, 3.901804e+13
1.050472e+04, 3.911581e+13
1.051522e+04, 3.563005e+13
1.052574e+04, 3.561900e+13
1.053626e+04, 4.107701e+13
1.054680e+04, 3.801616e+13
1.055734e+04, 3.694693e+13
1.056790e+04, 3.672654e+13
1.057847e+04, 3.922780e+13
1.058905e+04, 3.904557e+13
1.059964e+04, 4.022576e+13
1.061024e+04, 3.756829e+13
1.062085e+04, 3.723640e+13
1.063147e+04, 3.943110e+13
1.064210e+04, 4.083419e+13
1.065274e+04, 3.931690e+13
1.066339e+04, 3.819635e+13
1.067406e+04, 3.698274e+13
1.068473e+04, 3.903481e+13
1.069542e+04, 3.964086e+13
1.070611e+04, 3.945082e+13
1.071682e+04, 4.090957e+13
1.072753e+04, 3.860118e+13
1.073826e+04, 3.995718e+13
1.074900e+04, 4.025377e+13
1.075975e+04, 4.105617e+13
1.077051e+04, 4.095770e+13
1.078128e+04, 4.128175e+13
1.079206e+04, 4.052357e+13
1.080285e+04, 4.087283e+13
1.081366e+04, 4.002237e+13
1.082447e+04, 4.129371e+13
1.083529e+04, 4.098500e+13
1.084613e+04, 4.121289e+13
1.085698e+04, 4.056364e+13
1.086783e+04, 4.107499e+13
1.087870e+04, 4.207468e+13
1.088958e+04, 4.070618e+13
1.090047e+04, 4.186166e+13
1.091137e+04, 4.065438e+13
1.092228e+04, 4.086806e+13
1.093320e+04, 4.126025e+13
1.094414e+04, 4.194147e+13
1.095508e+04, 4.115634e+13
1.096604e+04, 4.101548e+13
1.097700e+04, 4.001924e+13
1.098798e+04, 4.065059e+13
1.099897e+04, 4.097973e+13
1.100997e+04, 4.115902e+13
1.102098e+04, 3.965750e+13
1.103200e+04, 4.012347e+13
1.104303e+04, 4.014393e+13
1.105407e+04, 3.928715e+13
1.106513e+04, 3.986586e+13
1.107619e+04, 4.034228e+13
1.108727e+04, 3.994562e+13
1.109835e+04, 3.971298e+13
1.110945e+04, 3.985499e+13
1.112056e+04, 3.926077e+13
1.113168e+04, 4.008761e+13
1.114281e+04, 4.085119e+13
1.115396e+04, 3.970944e+13
1.116511e+04, 4.049870e+13
1.117628e+04, 3.991052e+13
1.118745e+04, 4.052439e+13
1.119864e+04, 3.964106e+13
1.120984e+04, 3.988336e+13
1.122105e+04, 3.985855e+13
1.123227e+04, 4.068933e+13
1.124350e+04, 4.024853e+13
1.125474e+04, 3.892641e+13
1.126600e+04, 4.078235e+13
1.127727e+04, 3.973245e+13
1.128854e+04, 4.021265e+13
1.129983e+04, 3.969524e+13
1.131113e+04, 4.062474e+13
1.132244e+04, 4.054993e+13
1.133376e+04, 4.027818e+13
1.134510e+04, 4.006672e+13
1.135644e+04, 3.965708e+13
1.136780e+04, 3.967940e+13
1.137917e+04, 3.533378e+13
1.139055e+04, 3.695327e+13
1.140194e+04, 3.394274e+13
1.141334e+04, 3.691368e+13
1.142475e+04, 3.913559e+13
1.143618e+04, 3.995235e+13
1.144761e+04, 3.935005e+13
1.145906e+04, 3.966820e+13
1.147052e+04, 3.999969e+13
1.148199e+04, 3.948703e+13
1.149347e+04, 4.009002e+13
1.150497e+04, 4.033849e+13
1.151647e+04, 4.039748e+13
1.152799e+04, 4.029648e+13
1.153952e+04, 3.989859e+13
1.155106e+04, 3.969965e+13
1.156261e+04, 3.981151e+13
1.157417e+04, 4.000734e+13
1.158574e+04, 4.008413e+13
1.159733e+04, 3.933524e+13
1.160893e+04, 3.756388e+13
1.162054e+04, 3.996950e+13
1.163216e+04, 3.999511e+13
1.164379e+04, 3.879671e+13
1.165543e+04, 3.952134e+13
1.166709e+04, 3.998717e+13
1.167875e+04, 3.973932e+13
1.169043e+04, 3.584527e+13
1.170212e+04, 3.952566e+13
1.171383e+04, 3.956386e+13
1.172554e+04, 4.011227e+13
1.173726e+04, 3.924144e+13
1.174900e+04, 3.944674e+13
1.176075e+04, 3.937723e+13
1.177251e+04, 3.340945e+13
1.178428e+04, 3.777305e+13
1.179607e+04, 3.894364e+13
1.180786e+04, 3.932295e+13
1.181967e+04, 3.942859e+13
1.183149e+04, 3.780223e+13
1.184332e+04, 3.943074e+13
1.185517e+04, 3.904433e+13
1.186702e+04, 3.928768e+13
1.187889e+04, 3.931851e+13
1.189077e+04, 3.585725e+13
1.190266e+04, 3.942119e+13
1.191456e+04, 3.893110e+13
1.192648e+04, 3.937106e+13
1.193840e+04, 3.858759e+13
1.195034e+04, 3.774061e+13
1.196229e+04, 3.744246e+13
1.197425e+04, 3.510680e+13
1.198623e+04, 3.774379e+13
1.199821e+04, 3.715685e+13
1.201021e+04, 3.777835e+13
1.202222e+04, 3.819565e+13
1.203424e+04, 3.768290e+13
1.204628e+04, 3.810431e+13
1.205833e+04, 3.890495e+13
1.207038e+04, 3.780108e+13
1.208245e+04, 3.823417e+13
1.209454e+04, 3.782084e+13
1.210663e+04, 3.790648e+13
1.211874e+04, 3.767035e+13
1.213086e+04, 3.801597e+13
1.214299e+04, 3.862467e+13
1.215513e+04, 3.860923e+13
1.216729e+04, 3.828114e+13
1.217945e+04, 3.861193e+13
1.219163e+04, 3.840955e+13
1.220382e+04, 3.761063e+13
1.221603e+04, 3.804289e+13
1.222824e+04, 3.808605e+13
1.224047e+04, 3.788818e+13
1.225271e+04, 3.846439e+13
1.226497e+04, 3.847208e+13
1.227723e+04, 3.817261e+13
1.228951e+04, 3.821925e+13
1.230180e+04, 3.809031e+13
1.231410e+04, 3.791322e+13
1.232641e+04, 3.750971e+13
1.233874e+04, 3.772976e+13
1.235108e+04, 3.784933e+13
1.236343e+04, 3.743882e+13
1.237579e+04, 3.777292e+13
1.238817e+04, 3.719327e+13
1.240056e+04, 3.742568e+13
1.241296e+04, 3.603890e+13
1.242537e+04, 3.565227e+13
1.243780e+04, 3.414177e+13
1.245023e+04, 3.717212e+13
1.246268e+04, 3.690594e+13
1.247515e+04, 3.655770e+13
1.248762e+04, 3.712573e+13
1.250011e+04, 3.657899e+13
1.251261e+04, 3.652220e+13
1.252512e+04, 3.305078e+13
1.253765e+04, 3.708144e+13
1.255018e+04, 3.627278e+13
1.256273e+04, 3.666787e+13
1.257530e+04, 3.672621e+13
1.258787e+04, 3.685086e+13
1.260046e+04, 3.651426e+13
1.261306e+04, 3.697941e+13
1.262567e+04, 3.657608e+13
1.263830e+04, 3.603049e+13
1.265094e+04, 3.694804e+13
1.266359e+04, 3.666909e+13
1.267625e+04, 3.580843e+13
1.268893e+04, 3.616472e+13
1.270162e+04, 3.661115e+13
1.271432e+04, 3.664475e+13
1.272703e+04, 3.715449e+13
1.273976e+04, 3.608764e+13
1.275250e+04, 3.636189e+13
1.276525e+04, 3.677110e+13
1.277802e+04, 3.654848e+13
1.279080e+04, 3.682025e+13
1.280359e+04, 3.656855e+13
1.281639e+04, 3.611305e+13
1.282921e+04, 3.486925e+13
1.284204e+04, 3.642473e+13
1.285488e+04, 3.571266e+13
1.286773e+04, 3.580292e+13
1.288060e+04, 3.554385e+13
1.289348e+04, 3.582009e+13
1.290637e+04, 3.464378e+13
1.291928e+04, 3.542855e+13
1.293220e+04, 3.548152e+13
1.294513e+04, 3.545093e+13
1.295808e+04, 3.626532e+13
1.297104e+04, 3.598991e+13
1.298401e+04, 3.581748e+13
1.299699e+04, 3.553036e+13
1.300999e+04, 3.547031e+13
1.302300e+04, 3.621022e+13
1.303602e+04, 3.549932e+13
1.304906e+04, 3.588896e+13
1.306211e+04, 3.575689e+13
1.307517e+04, 3.532006e+13
1.308824e+04, 3.529298e+13
1.310133e+04, 3.541669e+13
1.311443e+04, 3.553050e+13
1.312755e+04, 3.263210e+13
1.314067e+04, 3.458366e+13
1.315382e+04, 3.326346e+13
1.316697e+04, 3.558106e+13
1.318014e+04, 3.548242e+13
1.319332e+04, 3.573433e+13
1.320651e+04, 3.486520e+13
1.321972e+04, 3.469280e+13
1.323294e+04, 3.509867e+13
1.324617e+04, 3.496569e+13
1.325941e+04, 3.470795e+13
1.327267e+04, 3.418151e+13
1.328595e+04, 3.436000e+13
1.329923e+04, 3.373181e+13
1.331253e+04, 3.360659e+13
1.332584e+04, 3.187712e+13
1.333917e+04, 3.310909e+13
1.335251e+04, 2.938237e+13
1.336586e+04, 3.091373e+13
1.337923e+04, 3.023296e+13
1.339261e+04, 3.156439e+13
1.340600e+04, 3.110929e+13
1.341941e+04, 3.056572e+13
1.343283e+04, 3.010129e+13
1.344626e+04, 3.032760e+13
1.345970e+04, 3.119083e+13
1.347316e+04, 3.022845e+13
1.348664e+04, 3.088283e+13
1.350012e+04, 3.019537e+13
1.351362e+04, 3.053027e+13
1.352714e+04, 3.075009e+13
1.354066e+04, 2.985837e+13
1.355421e+04, 3.017068e+13
1.356776e+04, 3.099418e+13
1.358133e+04, 3.009786e+13
1.359491e+04, 3.040786e+13
1.360850e+04, 3.044825e+13
1.362211e+04, 2.934254e+13
1.363573e+04, 3.007718e+13
1.364937e+04, 2.983965e+13
1.366302e+04, 3.046322e+13
1.367668e+04, 3.065969e+13
1.369036e+04, 3.002828e+13
1.370405e+04, 3.051631e+13
1.371775e+04, 3.040148e+13
1.373147e+04, 3.042726e+13
1.374520e+04, 3.055543e+13
1.375895e+04, 3.078704e+13
1.377271e+04, 3.068770e+13
1.378648e+04, 3.026945e+13
1.380027e+04, 3.085460e+13
1.381407e+04, 3.099113e+13
1.382788e+04, 2.976752e+13
1.384171e+04, 3.062937e+13
1.385555e+04, 3.002735e+13
1.386941e+04, 3.023195e+13
1.388327e+04, 2.925156e+13
1.389716e+04, 2.969348e+13
1.391106e+04, 2.749319e+13
1.392497e+04, 2.803937e+13
1.393889e+04, 2.833358e+13
1.395283e+04, 2.853939e+13
1.396678e+04, 2.903227e+13
1.398075e+04, 2.760792e+13
1.399473e+04, 2.811093e+13
1.400873e+04, 2.802755e+13
1.402273e+04, 2.873772e+13
1.403676e+04, 2.916431e+13
1.405079e+04, 2.810597e+13
1.406484e+04, 2.865662e+13
1.407891e+04, 2.815720e+13
1.409299e+04, 2.788033e+13
1.410708e+04, 2.795261e+13
1.412119e+04, 2.694806e+13
1.413531e+04, 2.777778e+13
1.414944e+04, 2.761504e+13
1.416359e+04, 2.756479e+13
1.417776e+04, 2.665218e+13
1.419194e+04, 2.688030e+13
1.420613e+04, 2.798267e+13
1.422033e+04, 2.725745e+13
1.423455e+04, 2.658802e+13
1.424879e+04, 2.740828e+13
1.426304e+04, 2.676712e+13
1.427730e+04, 2.708861e+13
1.429158e+04, 2.637253e+13
1.430587e+04, 2.773239e+13
1.432018e+04, 2.719266e+13
1.433450e+04, 2.681657e+13
1.434883e+04, 2.687878e+13
1.436318e+04, 2.669624e+13
1.437754e+04, 2.723163e+13
1.439192e+04, 2.656458e+13
1.440631e+04, 2.678827e+13
1.442072e+04, 2.688572e+13
1.443514e+04, 2.779130e+13
1.444957e+04, 2.626247e+13
1.446402e+04, 2.712128e+13
1.447849e+04, 2.700067e+13
1.449297e+04, 2.724294e+13
1.450746e+04, 2.606609e+13
1.452197e+04, 2.755186e+13
1.453649e+04, 2.685755e+13
1.455102e+04, 2.739642e+13
1.456558e+04, 2.552928e+13
1.458014e+04, 2.734094e+13
1.459472e+04, 2.737059e+13
1.460932e+04, 2.544260e+13
1.462393e+04, 2.506407e+13
1.463855e+04, 2.639548e+13
1.465319e+04, 2.656919e+13
1.466784e+04, 2.597791e+13
1.468251e+04, 2.521765e+13
1.469719e+04, 2.517490e+13
1.471189e+04, 2.591294e+13
1.472660e+04, 2.650018e+13
1.474133e+04, 2.568656e+13
1.475607e+04, 2.577648e+13
1.477082e+04, 2.530243e+13
1.478560e+04, 2.589288e+13
1.480038e+04, 2.508682e+13
1.481518e+04, 2.554535e+13
1.483000e+04, 2.626149e+13
1.484483e+04, 2.580037e+13
1.485967e+04, 2.605957e+13
1.487453e+04, 2.605748e+13
1.488941e+04, 2.491964e+13
1.490429e+04, 2.539233e+13
1.491920e+04, 2.624210e+13
1.493412e+04, 2.595511e+13
1.494905e+04, 2.585903e+13
1.496400e+04, 2.608005e+13
1.497897e+04, 2.626513e+13
1.499394e+04, 2.613653e+13
1.500894e+04, 2.529455e+13
1.502395e+04, 2.446534e+13
1.503897e+04, 2.578160e+13
1.505401e+04, 2.547201e+13
1.506906e+04, 2.604237e+13
1.508413e+04, 2.551740e+13
1.509922e+04, 2.620454e+13
1.511432e+04, 2.590840e+13
1.512943e+04, 2.545432e+13
1.514456e+04, 2.575367e+13
1.515970e+04, 2.547011e+13
1.517486e+04, 2.424148e+13
1.519004e+04, 2.625673e+13
1.520523e+04, 2.590744e+13
1.522043e+04, 2.638269e+13
1.523566e+04, 2.621063e+13
1.525089e+04, 2.569738e+13
1.526614e+04, 2.505883e+13
1.528141e+04, 2.504438e+13
1.529669e+04, 2.625092e+13
1.531199e+04, 2.616756e+13
1.532730e+04, 2.474419e+13
1.534263e+04, 2.574867e+13
1.535797e+04, 2.615337e+13
1.537333e+04, 2.529451e+13
1.538870e+04, 2.537027e+13
1.540409e+04, 2.464821e+13
1.541949e+04, 2.482175e+13
1.543491e+04, 2.498286e+13
1.545035e+04, 2.605196e+13
1.546580e+04, 2.563544e+13
1.548126e+04, 2.538649e+13
1.549674e+04, 2.565536e+13
1.551224e+04, 2.503261e+13
1.552775e+04, 2.621590e+13
1.554328e+04, 2.458805e+13
1.555882e+04, 2.520243e+13
1.557438e+04, 2.472697e+13
1.558996e+04, 2.568434e+13
1.560555e+04, 2.549270e+13
1.562115e+04, 2.573514e+13
1.563677e+04, 2.560921e+13
1.565241e+04, 2.469436e+13
1.566806e+04, 2.596702e+13
1.568373e+04, 2.595510e+13
1.569941e+04, 2.547120e+13
1.571511e+04, 2.536116e+13
1.573083e+04, 2.483981e+13
1.574656e+04, 2.580885e+13
1.576231e+04, 2.506448e+13
1.577807e+04, 2.510739e+13
1.579385e+04, 2.606805e+13
1.580964e+04, 2.589786e+13
1.582545e+04, 2.592953e+13
1.584128e+04, 2.526375e+13
1.585712e+04, 2.614693e+13
1.587297e+04, 2.594497e+13
1.588885e+04, 2.516619e+13
1.590474e+04, 2.487529e+13
1.592064e+04, 2.538092e+13
1.593656e+04, 2.579983e+13
1.595250e+04, 2.614073e+13
1.596845e+04, 2.607741e+13
1.598442e+04, 2.596225e+13
1.600040e+04, 2.585377e+13
1.601640e+04, 2.592812e+13
1.603242e+04, 2.604293e+13
1.604845e+04, 2.523009e+13
1.606450e+04, 2.468089e+13
1.608057e+04, 2.515098e+13
1.609665e+04, 2.604162e+13
1.611274e+04, 2.580464e+13
1.612886e+04, 2.577577e+13
1.614498e+04, 2.547468e+13
1.616113e+04, 2.459926e+13
1.617729e+04, 2.614536e+13
1.619347e+04, 2.434904e+13
1.620966e+04, 2.450838e+13
1.622587e+04, 2.518816e+13
1.624210e+04, 2.555125e+13
1.625834e+04, 2.437379e+13
1.627460e+04, 2.571594e+13
1.629087e+04, 2.602867e+13
1.630716e+04, 2.565508e+13
1.632347e+04, 2.550730e+13
1.633979e+04, 2.582629e+13
1.635613e+04, 2.489568e+13
1.637249e+04, 2.511466e+13
1.638886e+04, 2.550548e+13
1.640525e+04, 2.563353e+13
1.642166e+04, 2.564065e+13
1.643808e+04, 2.580562e+13
1.645452e+04, 2.434758e+13
1.647097e+04, 2.552686e+13
1.648744e+04, 2.571041e+13
1.650393e+04, 2.572703e+13
1.652043e+04, 2.545661e+13
1.653695e+04, 2.470563e+13
1.655349e+04, 2.589463e+13
1.657004e+04, 2.591187e+13
1.658661e+04, 2.533131e+13
1.660320e+04, 2.538492e+13
1.661980e+04, 2.541002e+13
1.663642e+04, 2.565826e+13
1.665306e+04, 2.479354e+13
1.666971e+04, 2.509846e+13
1.668638e+04, 2.545181e+13
1.670307e+04, 2.517455e+13
1.671977e+04, 2.366778e+13
1.673649e+04, 2.498281e+13
1.675323e+04, 2.382246e+13
1.676998e+04, 2.475985e+13
1.678675e+04, 2.547855e+13
1.680354e+04, 2.524824e+13
1.682034e+04, 2.537312e+13
1.683716e+04, 2.522654e+13
1.685400e+04, 2.518911e+13
1.687085e+04, 2.432273e+13
1.688772e+04, 2.405743e+13
1.690461e+04, 2.356689e+13
1.692152e+04, 2.436246e+13
1.693844e+04, 2.488217e+13
1.695538e+04, 2.444221e+13
1.697233e+04, 2.429437e+13
1.698930e+04, 2.446785e+13
1.700629e+04, 2.408006e+13
1.702330e+04, 2.430423e+13
1.704032e+04, 2.406061e+13
1.705736e+04, 2.348983e+13
1.707442e+04, 2.311539e+13
1.709149e+04, 2.333661e+13
1.710859e+04, 2.135871e+13
1.712569e+04, 2.315957e+13
1.714282e+04, 2.288566e+13
1.715996e+04, 2.278585e+13
1.717712e+04, 2.233957e+13
1.719430e+04, 2.195547e+13
1.721149e+04, 2.259343e+13
1.722871e+04, 2.187369e+13
1.724593e+04, 2.221156e+13
1.726318e+04, 2.182718e+13
1.728044e+04, 2.231848e+13
1.729772e+04, 2.205794e+13
1.731502e+04, 2.120773e+13
1.733234e+04, 2.159558e+13
1.734967e+04, 2.065434e+13
1.736702e+04, 2.153863e+13
1.738439e+04, 2.141394e+13
1.740177e+04, 2.080684e+13
1.741917e+04, 2.084903e+13
1.743659e+04, 2.077441e+13
1.745403e+04, 2.102382e+13
1.747148e+04, 2.051041e+13
1.748895e+04, 2.080470e+13
1.750644e+04, 1.996586e+13
1.752395e+04, 2.053421e+13
1.754147e+04, 1.976752e+13
1.755901e+04, 1.902944e+13
1.757657e+04, 1.985150e+13
1.759415e+04, 1.948455e+13
1.761174e+04, 1.944198e+13
1.762936e+04, 1.904181e+13
1.764699e+04, 1.944145e+13
1.766463e+04, 1.955687e+13
1.768230e+04, 1.829030e+13
1.769998e+04, 1.952773e+13
1.771768e+04, 1.831953e+13
1.773540e+04, 1.897485e+13
1.775313e+04, 1.839407e+13
1.777089e+04, 1.794847e+13
1.778866e+04, 1.796493e+13
1.780644e+04, 1.824108e+13
1.782425e+04, 1.742750e+13
1.784208e+04, 1.846324e+13
1.785992e+04, 1.743033e+13
1.787778e+04, 1.724186e+13
1.789566e+04, 1.814675e+13
1.791355e+04, 1.706318e+13
1.793146e+04, 1.762070e+13
1.794940e+04, 1.733705e+13
1.796735e+04, 1.701780e+13
1.798531e+04, 1.774618e+13
1.800330e+04, 1.629245e+13
1.802130e+04, 1.677515e+13
1.803932e+04, 1.695138e+13
1.805736e+04, 1.659982e+13
1.807542e+04, 1.665315e+13
1.809349e+04, 1.717370e+13
1.811159e+04, 1.604085e+13
1.812970e+04, 1.638078e+13
1.814783e+04, 1.708295e+13
1.816598e+04, 1.684581e+13
1.818414e+04, 1.620043e+13
1.820233e+04, 1.591411e+13
1.822053e+04, 1.564578e+13
1.823875e+04, 1.768426e+13
1.825699e+04, 1.563356e+13
1.827525e+04, 1.611236e+13
1.829352e+04, 1.659636e+13
1.831181e+04, 1.615681e+13
1.833013e+04, 1.578310e+13
1.834846e+04, 1.614937e+13
1.836681e+04, 1.615892e+13
1.838517e+04, 1.579601e+13
1.840356e+04, 1.584981e+13
1.842196e+04, 1.555618e+13
1.844038e+04, 1.487616e+13
1.845882e+04, 1.520713e+13
1.847728e+04, 1.379718e+13
1.849576e+04, 1.485192e+13
1.851425e+04, 1.578437e+13
1.853277e+04, 1.477276e+13
1.855130e+04, 1.543604e+13
1.856985e+04, 1.391510e+13
1.858842e+04, 1.376164e+13
1.860701e+04, 1.376649e+13
1.862562e+04, 1.485336e+13
1.864424e+04, 1.434793e+13
1.866289e+04, 1.486599e+13
1.868155e+04, 1.468455e+13
1.870023e+04, 1.527855e+13
1.871893e+04, 1.448581e+13
1.873765e+04, 1.395687e+13
1.875639e+04, 1.472212e+13
1.877515e+04, 1.443644e+13
1.879392e+04, 1.407091e+13
1.881272e+04, 1.454424e+13
1.883153e+04, 1.558180e+13
1.885036e+04, 1.427358e+13
1.886921e+04, 1.480624e+13
1.888808e+04, 1.468460e+13
1.890697e+04, 1.460868e+13
1.892587e+04, 1.365983e+13
1.894480e+04, 1.444121e+13
1.896374e+04, 1.488991e+13
1.898271e+04, 1.428347e+13
1.900169e+04, 1.500596e+13
1.902069e+04, 1.449222e+13
1.903971e+04, 1.454151e+13
1.905875e+04, 1.423837e+13
1.907781e+04, 1.462981e+13
1.909689e+04, 1.447610e+13
1.911599e+04, 1.394766e+13
1.913510e+04, 1.483298e+13
1.915424e+04, 1.453734e+13
1.917339e+04, 1.412300e+13
1.919257e+04, 1.450277e+13
1.921176e+04, 1.424679e+13
1.923097e+04, 1.410663e+13
1.925020e+04, 1.417270e+13
1.926945e+04, 1.401659e+13
1.928872e+04, 1.401116e+13
1.930801e+04, 1.186932e+13
1.932732e+04, 1.328104e+13
1.934664e+04, 1.395337e+13
1.936599e+04, 1.412830e+13
1.938536e+04, 1.368109e+13
1.940474e+04, 1.354620e+13
1.942415e+04, 1.362073e+13
1.944357e+04, 1.265717e+13
1.946301e+04, 1.130716e+13
1.948248e+04, 1.294142e+13
1.950196e+04, 1.232631e+13
1.952146e+04, 1.259404e+13
1.954098e+04, 1.352571e+13
1.956052e+04, 1.316663e+13
1.958009e+04, 1.426005e+13
1.959967e+04, 1.342377e+13
1.961927e+04, 1.357032e+13
1.963888e+04, 1.327824e+13
1.965852e+04, 1.364412e+13
1.967818e+04, 1.359370e+13
1.969786e+04, 1.364474e+13
1.971756e+04, 1.332906e+13
1.973728e+04, 1.274719e+13
1.975701e+04, 1.214396e+13
1.977677e+04, 1.047999e+13
1.979655e+04, 1.164431e+13
1.981634e+04, 1.238839e+13
1.983616e+04, 1.266731e+13
1.985600e+04, 1.178040e+13
1.987585e+04, 1.152343e+13
1.989573e+04, 1.240289e+13
1.991562e+04, 1.194301e+13
1.993554e+04, 1.250906e+13
1.995547e+04, 1.272554e+13
1.997543e+04, 1.219359e+13
1.999541e+04, 1.250445e+13
2.001540e+04, 1.252945e+13
2.003542e+04, 1.291398e+13
2.005545e+04, 1.264059e+13
2.007551e+04, 1.285148e+13
2.009558e+04, 1.217320e+13
2.011568e+04, 1.214300e+13
2.013579e+04, 1.241417e+13
2.015593e+04, 1.243748e+13
2.017609e+04, 1.245560e+13
2.019626e+04, 1.170811e+13
2.021646e+04, 1.277114e+13
2.023667e+04, 1.247120e+13
2.025691e+04, 1.217932e+13
2.027717e+04, 1.206424e+13
2.029744e+04, 1.203732e+13
2.031774e+04, 1.237931e+13
2.033806e+04, 1.221896e+13
2.035840e+04, 1.206264e+13
2.037876e+04, 1.225109e+13
2.039914e+04, 1.204067e+13
2.041953e+04, 1.228163e+13
2.043995e+04, 1.183364e+13
2.046039e+04, 1.194067e+13
2.048085e+04, 1.203404e+13
2.050134e+04, 1.188178e+13
2.052184e+04, 1.223913e+13
2.054236e+04, 1.171575e+13
2.056290e+04, 1.195108e+13
2.058346e+04, 1.222357e+13
2.060405e+04, 1.182789e+13
2.062465e+04, 1.198477e+13
2.064528e+04, 1.148348e+13
2.066592e+04, 1.183888e+13
2.068659e+04, 1.179818e+13
2.070727e+04, 1.210063e+13
2.072798e+04, 1.159770e+13
2.074871e+04, 1.174529e+13
2.076946e+04, 1.175218e+13
2.079023e+04, 1.184421e+13
2.081102e+04, 1.168684e+13
2.083183e+04, 1.171760e+13
2.085266e+04, 1.171073e+13
2.087351e+04, 1.166375e+13
2.089439e+04, 1.145515e+13
2.091528e+04, 1.198378e+13
2.093620e+04, 1.171775e+13
2.095713e+04, 1.158689e+13
2.097809e+04, 1.169135e+13
2.099907e+04, 1.152897e+13
2.102007e+04, 1.171032e+13
2.104109e+04, 1.174304e+13
2.106213e+04, 1.169976e+13
2.108319e+04, 1.141185e+13
2.110427e+04, 1.185624e+13
2.112538e+04, 1.138666e+13
2.114650e+04, 1.175481e+13
2.116765e+04, 1.140677e+13
2.118882e+04, 1.161644e+13
2.121001e+04, 1.163175e+13
2.123122e+04, 1.163179e+13
2.125245e+04, 1.161919e+13
2.127370e+04, 1.150457e+13
2.129497e+04, 1.140299e+13
2.131627e+04, 1.160985e+13
2.133758e+04, 1.159516e+13
2.135892e+04, 1.170652e+13
2.138028e+04, 1.138406e+13
2.140166e+04, 1.144883e+13
2.142306e+04, 1.146103e+13
2.144449e+04, 1.183967e+13
2.146593e+04, 1.169525e+13
2.148740e+04, 1.142196e+13
2.150888e+04, 1.145979e+13
2.153039e+04, 1.142200e+13
2.155192e+04, 1.152995e+13
2.157347e+04, 1.159045e+13
2.159505e+04, 1.147701e+13
2.161664e+04, 1.163562e+13
2.163826e+04, 1.142586e+13
2.165990e+04, 1.152631e+13
2.168156e+04, 1.164037e+13
2.170324e+04, 1.148638e+13
2.172494e+04, 1.144400e+13
2.174667e+04, 1.149458e+13
2.176841e+04, 1.137015e+13
2.179018e+04, 1.127259e+13
2.181197e+04, 1.144531e+13
2.183378e+04, 1.126603e+13
2.185562e+04, 1.143284e+13
2.187747e+04, 1.143348e+13
2.189935e+04, 1.128243e+13
2.192125e+04, 1.136821e+13
2.194317e+04, 1.141375e+13
2.196512e+04, 1.134924e+13
2.198708e+04, 1.140604e+13
2.200907e+04, 1.134574e+13
2.203108e+04, 1.116192e+13
2.205311e+04, 1.049415e+13
2.207516e+04, 1.080521e+13
2.209724e+04, 1.057510e+13
2.211933e+04, 1.128880e+13
2.214145e+04, 1.129170e+13
2.216359e+04, 1.122608e+13
2.218576e+04, 1.125543e+13
2.220794e+04, 1.104080e+13
2.223015e+04, 1.118407e+13
2.225238e+04, 1.140216e+13
2.227463e+04, 1.105088e+13
2.229691e+04, 1.108755e+13
2.231921e+04, 1.122984e+13
2.234152e+04, 1.105197e+13
2.236387e+04, 1.110058e+13
2.238623e+04, 1.114222e+13
2.240862e+04, 1.113321e+13
2.243102e+04, 1.106776e+13
2.245346e+04, 1.110077e+13
2.247591e+04, 1.104144e+13
2.249839e+04, 1.105298e+13
2.252088e+04, 1.107502e+13
2.254340e+04, 1.095601e+13
2.256595e+04, 1.103728e+13
2.258851e+04, 1.090563e+13
2.261110e+04, 1.057656e+13
2.263371e+04, 1.040813e+13
2.265635e+04, 1.033816e+13
2.267900e+04, 1.086057e+13
2.270168e+04, 1.079653e+13
2.272438e+04, 1.079034e+13
2.274711e+04, 1.084504e+13
2.276986e+04, 1.084494e+13
2.279263e+04, 1.069024e+13
2.281542e+04, 1.073362e+13
2.283823e+04, 1.055117e+13
2.286107e+04, 1.077509e+13
2.288393e+04, 1.068973e+13
2.290682e+04, 1.068709e+13
2.292972e+04, 9.872033e+12
2.295265e+04, 9.360456e+12
2.297561e+04, 9.667754e+12
2.299858e+04, 1.001509e+13
2.302158e+04, 9.943740e+12
2.304460e+04, 1.002800e+13
2.306765e+04, 9.798418e+12
2.309071e+04, 1.002693e+13
2.311380e+04, 9.891252e+12
2.313692e+04, 9.948281e+12
2.316006e+04, 9.826578e+12
2.318322e+04, 9.916623e+12
2.320640e+04, 9.866258e+12
2.322961e+04, 8.675503e+12
2.325283e+04, 8.989253e+12
2.327609e+04, 9.351470e+12
2.329936e+04, 9.197181e+12
2.332266e+04, 9.480230e+12
2.334599e+04, 8.969121e+12
2.336933e+04, 9.110668e+12
2.339270e+04, 8.795276e+12
2.341609e+04, 9.363686e+12
2.343951e+04, 9.149468e+12
2.346295e+04, 9.388730e+12
2.348641e+04, 9.281754e+12
2.350990e+04, 9.144974e+12
2.353341e+04, 7.976081e+12
2.355694e+04, 8.711161e+12
2.358050e+04, 8.660450e+12
2.360408e+04, 8.736424e+12
2.362768e+04, 8.754246e+12
2.365131e+04, 9.013039e+12
2.367496e+04, 8.759201e+12
2.369864e+04, 8.830780e+12
2.372234e+04, 8.959032e+12
2.374606e+04, 8.741288e+12
2.376980e+04, 8.835305e+12
2.379357e+04, 8.700194e+12
2.381737e+04, 8.419780e+12
2.384119e+04, 7.795181e+12
2.386503e+04, 8.005905e+12
2.388889e+04, 8.181349e+12
2.391278e+04, 8.132303e+12
2.393669e+04, 8.377911e+12
2.396063e+04, 8.041978e+12
2.398459e+04, 8.151152e+12
2.400858e+04, 8.053523e+12
2.403258e+04, 7.886251e+12
2.405662e+04, 7.954368e+12
2.408067e+04, 7.604445e+12
2.410475e+04, 7.732821e+12
2.412886e+04, 7.616254e+12
2.415299e+04, 7.454505e+12
2.417714e+04, 7.475376e+12
2.420132e+04, 7.588436e+12
2.422552e+04, 7.191421e+12
2.424974e+04, 7.559821e+12
2.427399e+04, 7.135549e+12
2.429827e+04, 7.492949e+12
2.432257e+04, 7.231553e+12
2.434689e+04, 7.124399e+12
2.437124e+04, 6.805447e+12
2.439561e+04, 7.401445e+12
2.442000e+04, 6.999815e+12
2.444442e+04, 6.858734e+12
2.446887e+04, 6.920518e+12
2.449334e+04, 6.787902e+12
2.451783e+04, 6.742704e+12
2.454235e+04, 6.310954e+12
2.456689e+04, 6.989386e+12
2.459146e+04, 6.797737e+12
2.461605e+04, 6.299308e+12
2.464066e+04, 6.857796e+12
2.466530e+04, 6.471525e+12
2.468997e+04, 6.434135e+12
2.471466e+04, 6.516379e+12
2.473937e+04, 6.093549e+12
2.476411e+04, 6.437655e+12
2.478888e+04, 6.320167e+12
2.481367e+04, 5.942066e+12
2.483848e+04, 6.567987e+12
2.486332e+04, 6.049033e+12
2.488818e+04, 5.909224e+12
2.491307e+04, 5.753308e+12
2.493798e+04, 6.069401e+12
2.496292e+04, 6.160326e+12
2.498788e+04, 5.752919e+12
2.501287e+04, 5.985168e+12
2.503788e+04, 5.693570e+12
2.506292e+04, 5.525731e+12
2.508799e+04, 6.053761e+12
2.511307e+04, 5.745087e+12
2.513819e+04, 5.637204e+12
2.516332e+04, 5.707515e+12
2.518849e+04, 5.774281e+12
2.521368e+04, 5.764762e+12
2.523889e+04, 5.580789e+12
2.526413e+04, 5.635783e+12
2.528939e+04, 5.493972e+12
2.531468e+04, 5.873160e+12
2.534000e+04, 5.561874e+12
2.536534e+04, 5.300844e+12
2.539070e+04, 5.525060e+12
2.541609e+04, 5.497879e+12
2.544151e+04, 5.407204e+12
2.546695e+04, 5.618431e+12
2.549242e+04, 5.337939e+12
2.551791e+04, 5.540666e+12
2.554343e+04, 5.510236e+12
2.556897e+04, 5.428388e+12
2.559454e+04, 5.504629e+12
2.562014e+04, 5.186572e+12
2.564576e+04, 5.456663e+12
2.567140e+04, 5.360808e+12
2.569707e+04, 5.290717e+12
2.572277e+04, 5.711285e+12
2.574849e+04, 5.198972e+12
2.577424e+04, 5.018210e+12
2.580002e+04, 5.557326e+12
2.582582e+04, 5.213279e+12
2.585164e+04, 5.529565e+12
2.587749e+04, 5.306533e+12
2.590337e+04, 5.269092e+12
2.592927e+04, 5.422412e+12
2.595520e+04, 5.184776e+12
2.598116e+04, 5.130896e+12
2.600714e+04, 5.415576e+12
2.603315e+04, 5.428995e+12
2.605918e+04, 5.394763e+12
2.608524e+04, 5.011520e+12
2.611132e+04, 5.643389e+12
2.613744e+04, 5.288205e+12
2.616357e+04, 5.402784e+12
2.618974e+04, 5.075367e+12
2.621593e+04, 5.198361e+12
2.624214e+04, 5.302022e+12
2.626838e+04, 5.181138e+12
2.629465e+04, 5.229827e+12
2.632095e+04, 5.301403e+12
2.634727e+04, 5.036840e+12
2.637362e+04, 5.304269e+12
2.639999e+04, 5.130087e+12
2.642639e+04, 5.173567e+12
2.645282e+04, 5.085592e+12
2.647927e+04, 5.176336e+12
2.650575e+04, 5.205972e+12
2.653225e+04, 5.286340e+12
2.655879e+04, 5.098750e+12
2.658534e+04, 5.419167e+12
2.661193e+04, 5.208227e+12
2.663854e+04, 5.149590e+12
2.666518e+04, 5.156163e+12
2.669185e+04, 5.083158e+12
2.671854e+04, 5.189656e+12
2.674526e+04, 5.145094e+12
2.677200e+04, 4.702131e+12
2.679877e+04, 5.185637e+12
2.682557e+04, 4.999002e+12
2.685240e+04, 4.837795e+12
2.687925e+04, 5.105556e+12
2.690613e+04, 5.152902e+12
2.693303e+04, 4.685664e+12
2.695997e+04, 4.619450e+12
2.698693e+04, 4.955712e+12
2.701391e+04, 4.991913e+12
2.704093e+04, 4.650963e+12
2.706797e+04, 4.811728e+12
2.709504e+04, 4.830137e+12
2.712213e+04, 4.489251e+12
2.714925e+04, 4.783422e+12
2.717640e+04, 4.614187e+12
2.720358e+04, 4.704659e+12
2.723078e+04, 4.555332e+12
2.725801e+04, 4.570668e+12
2.728527e+04, 4.331868e+12
2.731256e+04, 4.779895e+12
2.733987e+04, 4.761137e+12
2.736721e+04, 4.245974e+12
2.739458e+04, 4.225317e+12
2.742197e+04, 4.619500e+12
2.744939e+04, 4.494915e+12
2.747684e+04, 4.525298e+12
2.750432e+04, 4.335312e+12
2.753182e+04, 4.427806e+12
2.755936e+04, 4.350167e+12
2.758692e+04, 4.460366e+12
2.761450e+04, 4.456013e+12
2.764212e+04, 4.379130e+12
2.766976e+04, 4.063315e+12
2.769743e+04, 4.244823e+12
2.772513e+04, 4.338908e+12
2.775285e+04, 4.498365e+12
2.778060e+04, 4.240767e+12
2.780839e+04, 4.285132e+12
2.783619e+04, 4.347617e+12
2.786403e+04, 3.994240e+12
2.789189e+04, 4.105259e+12
2.791979e+04, 4.165765e+12
2.794771e+04, 4.387910e+12
2.797565e+04, 4.214196e+12
2.800363e+04, 4.173430e+12
2.803163e+04, 3.870384e+12
2.805966e+04, 3.907402e+12
2.808772e+04, 4.178419e+12
2.811581e+04, 4.248953e+12
2.814393e+04, 3.998323e+12
2.817207e+04, 3.995727e+12
2.820024e+04, 3.700127e+12
2.822844e+04, 4.021028e+12
2.825667e+04, 4.014971e+12
2.828493e+04, 4.093918e+12
2.831321e+04, 4.103557e+12
2.834153e+04, 3.922918e+12
2.836987e+04, 3.753038e+12
2.839824e+04, 4.023246e+12
2.842664e+04, 3.932193e+12
2.845506e+04, 3.980587e+12
2.848352e+04, 3.964738e+12
2.851200e+04, 3.847794e+12
2.854051e+04, 3.605560e+12
2.856905e+04, 3.754307e+12
2.859762e+04, 4.177133e+12
2.862622e+04, 3.926417e+12
2.865485e+04, 3.869425e+12
2.868350e+04, 3.775388e+12
2.871219e+04, 3.693441e+12
2.874090e+04, 3.611019e+12
2.876964e+04, 4.018626e+12
2.879841e+04, 3.915062e+12
2.882721e+04, 3.885380e+12
2.885603e+04, 3.692297e+12
2.888489e+04, 3.652421e+12
2.891377e+04, 3.621097e+12
2.894269e+04, 3.989691e+12
2.897163e+04, 3.946827e+12
2.900060e+04, 3.524600e+12
2.902960e+04, 3.668004e+12
2.905863e+04, 3.772257e+12
2.908769e+04, 3.253767e+12
2.911678e+04, 3.749163e+12
2.914590e+04, 3.805672e+12
2.917504e+04, 3.686074e+12
2.920422e+04, 3.532519e+12
2.923342e+04, 3.461808e+12
2.926265e+04, 3.609844e+12
2.929192e+04, 3.330240e+12
2.932121e+04, 3.757037e+12
2.935053e+04, 3.637096e+12
2.937988e+04, 3.619232e+12
2.940926e+04, 3.402448e+12
2.943867e+04, 3.407106e+12
2.946811e+04, 3.427065e+12
2.949758e+04, 3.427238e+12
2.952707e+04, 3.567512e+12
2.955660e+04, 3.413415e+12
2.958616e+04, 3.586265e+12
2.961574e+04, 3.402246e+12
2.964536e+04, 3.470703e+12
2.967501e+04, 3.249986e+12
2.970468e+04, 3.390456e+12
2.973439e+04, 3.460285e+12
2.976412e+04, 3.558196e+12
2.979388e+04, 3.472994e+12
2.982368e+04, 3.338352e+12
2.985350e+04, 3.417117e+12
2.988335e+04, 3.082298e+12
2.991324e+04, 3.377584e+12
2.994315e+04, 3.487710e+12
2.997309e+04, 3.402412e+12
3.000307e+04, 3.399496e+12
3.003307e+04, 3.263062e+12
3.006310e+04, 3.235864e+12
3.009317e+04, 2.982715e+12
3.012326e+04, 3.274687e+12
3.015338e+04, 3.538329e+12
3.018354e+04, 3.420265e+12
3.021372e+04, 3.209281e+12
3.024393e+04, 3.245843e+12
3.027418e+04, 3.215133e+12
3.030445e+04, 3.130998e+12
3.033476e+04, 3.356357e+12
3.036509e+04, 3.302366e+12
3.039546e+04, 3.309135e+12
3.042585e+04, 3.175304e+12
3.045628e+04, 3.095874e+12
3.048673e+04, 3.018568e+12
3.051722e+04, 3.042459e+12
3.054774e+04, 3.410195e+12
3.057829e+04, 3.219621e+12
3.060886e+04, 3.243237e+12
3.063947e+04, 3.203972e+12
3.067011e+04, 3.191487e+12
3.070078e+04, 3.015434e+12
3.073148e+04, 2.985567e+12
3.076221e+04, 3.152410e+12
3.079298e+04, 3.296989e+12
3.082377e+04, 3.128784e+12
3.085459e+04, 3.086880e+12
3.088545e+04, 3.025661e+12
3.091633e+04, 3.017810e+12
3.094725e+04, 3.017997e+12
3.097820e+04, 3.033577e+12
3.100918e+04, 3.247994e+12
3.104018e+04, 3.164937e+12
3.107122e+04, 3.046540e+12
3.110230e+04, 3.029295e+12
3.113340e+04, 2.956396e+12
3.116453e+04, 3.055955e+12
3.119570e+04, 3.029094e+12
3.122689e+04, 3.104464e+12
3.125812e+04, 3.145734e+12
3.128938e+04, 2.920383e+12
3.132067e+04, 2.833696e+12
3.135199e+04, 2.982135e+12
3.138334e+04, 3.034131e+12
3.141472e+04, 3.070412e+12
3.144614e+04, 2.933049e+12
3.147758e+04, 3.021095e+12
3.150906e+04, 3.043243e+12
3.154057e+04, 2.901144e+12
3.157211e+04, 2.829173e+12
3.160368e+04, 3.028152e+12
3.163529e+04, 3.062495e+12
3.166692e+04, 2.897401e+12
3.169859e+04, 2.981566e+12
3.173029e+04, 2.918338e+12
3.176202e+04, 2.904548e+12
3.179378e+04, 2.783442e+12
3.182557e+04, 2.943054e+12
3.185740e+04, 2.910005e+12
3.188926e+04, 2.890743e+12
3.192115e+04, 2.953799e+12
3.195307e+04, 2.870672e+12
3.198502e+04, 2.840971e+12
3.201700e+04, 2.765326e+12
3.204902e+04, 2.870056e+12
3.208107e+04, 2.992134e+12
3.211315e+04, 2.922956e+12
3.214526e+04, 2.919752e+12
3.217741e+04, 2.813677e+12
3.220959e+04, 2.855420e+12
3.224180e+04, 2.841811e+12
3.227404e+04, 2.751658e+12
3.230631e+04, 2.920621e+12
3.233862e+04, 2.853308e+12
3.237096e+04, 2.814834e+12
3.240333e+04, 2.793143e+12
3.243573e+04, 2.745281e+12
3.246817e+04, 2.795312e+12
3.250064e+04, 2.799400e+12
3.253314e+04, 2.819046e+12
3.256567e+04, 2.889841e+12
3.259824e+04, 2.881568e+12
3.263083e+04, 2.842261e+12
3.266346e+04, 2.786441e+12
3.269613e+04, 2.729210e+12
3.272882e+04, 2.838409e+12
3.276155e+04, 2.729689e+12
3.279431e+04, 2.741768e+12
3.282711e+04, 2.735937e+12
3.285994e+04, 2.704858e+12
3.289280e+04, 2.767821e+12
3.292569e+04, 2.694638e+12
3.295861e+04, 2.720847e+12
3.299157e+04, 2.731777e+12
3.302456e+04, 2.801203e+12
3.305759e+04, 2.758875e+12
3.309065e+04, 2.721570e+12
3.312374e+04, 2.746866e+12
3.315686e+04, 2.671139e+12
3.319002e+04, 2.691902e+12
3.322321e+04, 2.733788e+12
3.325643e+04, 2.719964e+12
3.328969e+04, 2.809857e+12
3.332298e+04, 2.755618e+12
3.335630e+04, 2.685383e+12
3.338966e+04, 2.551237e+12
3.342305e+04, 2.663648e+12
3.345647e+04, 2.671647e+12
3.348993e+04, 2.675696e+12
3.352342e+04, 2.714597e+12
3.355694e+04, 2.603707e+12
3.359050e+04, 2.678043e+12
3.362409e+04, 2.662768e+12
3.365771e+04, 2.666414e+12
3.369137e+04, 2.680877e+12
3.372506e+04, 2.645301e+12
3.375878e+04, 2.623761e+12
3.379254e+04, 2.623319e+12
3.382634e+04, 2.639715e+12
3.386016e+04, 2.639618e+12
3.389402e+04, 2.669877e+12
3.392792e+04, 2.585259e+12
3.396184e+04, 2.496157e+12
3.399581e+04, 2.585025e+12
3.402980e+04, 2.591535e+12
3.406383e+04, 2.620576e+12
3.409790e+04, 2.553248e+12
3.413199e+04, 2.557871e+12
3.416613e+04, 2.545628e+12
3.420029e+04, 2.567974e+12
3.423449e+04, 2.606176e+12
3.426873e+04, 2.600074e+12
3.430300e+04, 2.577981e+12
3.433730e+04, 2.591199e+12
3.437164e+04, 2.572295e+12
3.440601e+04, 2.569759e+12
3.444041e+04, 2.491233e+12
3.447485e+04, 2.538173e+12
3.450933e+04, 2.528107e+12
3.454384e+04, 2.509641e+12
3.457838e+04, 2.410392e+12
3.461296e+04, 2.489679e+12
3.464757e+04, 2.518585e+12
3.468222e+04, 2.571156e+12
3.471690e+04, 2.559268e+12
3.475162e+04, 2.519313e+12
3.478637e+04, 2.538152e+12
3.482116e+04, 2.458606e+12
3.485598e+04, 2.484362e+12
3.489083e+04, 2.487847e+12
3.492573e+04, 2.426012e+12
3.496065e+04, 2.532587e+12
3.499561e+04, 2.433586e+12
3.503061e+04, 2.513423e+12
3.506564e+04, 2.470339e+12
3.510070e+04, 2.427718e+12
3.513580e+04, 2.460688e+12
3.517094e+04, 2.427932e+12
3.520611e+04, 2.289317e+12
3.524132e+04, 2.397885e+12
3.527656e+04, 2.400448e+12
3.531184e+04, 2.485699e+12
3.534715e+04, 2.454303e+12
3.538249e+04, 2.377528e+12
3.541788e+04, 2.447157e+12
3.545329e+04, 2.370846e+12
3.548875e+04, 2.429432e+12
3.552424e+04, 2.371709e+12
3.555976e+04, 2.389504e+12
3.559532e+04, 2.383182e+12
3.563092e+04, 2.398704e+12
3.566655e+04, 2.400670e+12
3.570221e+04, 2.285477e+12
3.573792e+04, 2.322435e+12
3.577365e+04, 2.308986e+12
3.580943e+04, 2.384317e+12
3.584524e+04, 2.355179e+12
3.588108e+04, 2.277461e+12
3.591696e+04, 2.310617e+12
3.595288e+04, 2.354932e+12
3.598883e+04, 2.305322e+12
3.602482e+04, 2.280150e+12
3.606085e+04, 2.362239e+12
3.609691e+04, 2.344063e+12
3.613300e+04, 2.302746e+12
3.616914e+04, 2.293261e+12
3.620531e+04, 2.302527e+12
3.624151e+04, 2.278549e+12
3.627775e+04, 2.326258e+12
3.631403e+04, 2.282578e+12
3.635035e+04, 2.194488e+12
3.638670e+04, 2.193720e+12
3.642308e+04, 2.287448e+12
3.645951e+04, 2.286620e+12
3.649596e+04, 2.249445e+12
3.653246e+04, 2.224583e+12
3.656899e+04, 2.211128e+12
3.660556e+04, 2.159698e+12
3.664217e+04, 2.183195e+12
3.667881e+04, 2.260089e+12
3.671549e+04, 2.245663e+12
3.675220e+04, 2.212316e+12
3.678896e+04, 2.178171e+12
3.682575e+04, 2.227717e+12
3.686257e+04, 2.218010e+12
3.689943e+04, 2.198521e+12
3.693633e+04, 2.176968e+12
3.697327e+04, 2.154559e+12
3.701024e+04, 2.130384e+12
3.704725e+04, 2.156996e+12
3.708430e+04, 2.079352e+12
3.712138e+04, 2.199570e+12
3.715851e+04, 2.155385e+12
3.719566e+04, 2.160402e+12
3.723286e+04, 2.161441e+12
3.727009e+04, 2.169734e+12
3.730736e+04, 2.160503e+12
3.734467e+04, 2.019055e+12
3.738202e+04, 2.089663e+12
3.741940e+04, 2.118055e+12
3.745682e+04, 2.123288e+12
3.749427e+04, 2.149674e+12
3.753177e+04, 2.142147e+12
3.756930e+04, 2.112809e+12
3.760687e+04, 2.117556e+12
3.764448e+04, 2.061110e+12
3.768212e+04, 2.083073e+12
3.771980e+04, 2.024880e+12
3.775752e+04, 2.071586e+12
3.779528e+04, 2.060930e+12
3.783307e+04, 2.071943e+12
3.787091e+04, 2.084823e+12
3.790878e+04, 2.076803e+12
3.794669e+04, 2.074817e+12
3.798463e+04, 2.060578e+12
3.802262e+04, 2.081846e+12
3.806064e+04, 2.013120e+12
3.809870e+04, 1.975343e+12
3.813680e+04, 1.979521e+12
3.817494e+04, 2.043454e+12
3.821311e+04, 2.035348e+12
3.825133e+04, 2.019364e+12
3.828958e+04, 1.996207e+12
3.832787e+04, 1.989367e+12
3.836619e+04, 1.959134e+12
3.840456e+04, 1.968261e+12
3.844297e+04, 2.008491e+12
3.848141e+04, 1.929721e+12
3.851989e+04, 1.941015e+12
3.855841e+04, 1.962149e+12
3.859697e+04, 1.991549e+12
3.863556e+04, 1.961697e+12
3.867420e+04, 1.936128e+12
3.871287e+04, 1.950447e+12
3.875159e+04, 1.941330e+12
3.879034e+04, 1.933230e+12
3.882913e+04, 1.966303e+12
3.886796e+04, 1.903022e+12
3.890683e+04, 1.889104e+12
3.894573e+04, 1.856719e+12
3.898468e+04, 1.881575e+12
3.902366e+04, 1.916666e+12
3.906269e+04, 1.894265e+12
3.910175e+04, 1.853552e+12
3.914085e+04, 1.843432e+12
3.917999e+04, 1.889250e+12
3.921917e+04, 1.877923e+12
3.925839e+04, 1.877229e+12
3.929765e+04, 1.849462e+12
3.933695e+04, 1.824724e+12
3.937628e+04, 1.833463e+12
3.941566e+04, 1.839920e+12
3.945508e+04, 1.841521e+12
3.949453e+04, 1.829564e+12
3.953403e+04, 1.809679e+12
3.957356e+04, 1.811652e+12
3.961313e+04, 1.822721e+12
3.965275e+04, 1.786102e+12
3.969240e+04, 1.788816e+12
3.973209e+04, 1.774487e+12
3.977182e+04, 1.759911e+12
3.981160e+04, 1.697972e+12
3.985141e+04, 1.713135e+12
3.989126e+04, 1.734562e+12
3.993115e+04, 1.737767e+12
3.997108e+04, 1.737205e+12
4.001105e+04, 1.726892e+12
4.005106e+04, 1.714091e+12
4.009111e+04, 1.705895e+12
4.013121e+04, 1.707684e+12
4.017134e+04, 1.670155e+12
4.021151e+04, 1.639329e+12
4.025172e+04, 1.682785e+12
4.029197e+04, 1.670209e+12
4.033226e+04, 1.680624e+12
4.037260e+04, 1.684068e+12
4.041297e+04, 1.628941e+12
4.045338e+04, 1.576515e+12
4.049383e+04, 1.609089e+12
4.053433e+04, 1.630837e+12
4.057486e+04, 1.628202e+12
4.061544e+04, 1.577093e+12
4.065605e+04, 1.613330e+12
4.069671e+04, 1.585793e+12
4.073741e+04, 1.559389e+12
4.077814e+04, 1.558825e+12
4.081892e+04, 1.558959e+12
4.085974e+04, 1.516620e+12
4.090060e+04, 1.530565e+12
4.094150e+04, 1.546577e+12
4.098244e+04, 1.540280e+12
4.102342e+04, 1.549520e+12
4.106445e+04, 1.555707e+12
4.110551e+04, 1.488650e+12
4.114662e+04, 1.522371e+12
4.118776e+04, 1.499972e+12
4.122895e+04, 1.504258e+12
4.127018e+04, 1.503987e+12
4.131145e+04, 1.463433e+12
4.135276e+04, 1.517466e+12
4.139412e+04, 1.461406e+12
4.143551e+04, 1.486853e+12
4.147695e+04, 1.491310e+12
4.151842e+04, 1.497167e+12
4.155994e+04, 1.446640e+12
4.160150e+04, 1.429327e+12
4.164310e+04, 1.426097e+12
4.168475e+04, 1.400243e+12
4.172643e+04, 1.422001e+12
4.176816e+04, 1.440224e+12
4.180992e+04, 1.445228e+12
4.185173e+04, 1.391624e+12
4.189359e+04, 1.425965e+12
4.193548e+04, 1.424539e+12
4.197742e+04, 1.408550e+12
4.201939e+04, 1.403803e+12
4.206141e+04, 1.396049e+12
4.210347e+04, 1.383563e+12
4.214558e+04, 1.355427e+12
4.218772e+04, 1.371319e+12
4.222991e+04, 1.368556e+12
4.227214e+04, 1.385833e+12
4.231441e+04, 1.385175e+12
4.235673e+04, 1.385691e+12
4.239908e+04, 1.360532e+12
4.244148e+04, 1.348668e+12
4.248392e+04, 1.334811e+12
4.252641e+04, 1.298585e+12
4.256893e+04, 1.333203e+12
4.261150e+04, 1.322548e+12
4.265411e+04, 1.318725e+12
4.269677e+04, 1.310713e+12
4.273947e+04, 1.286536e+12
4.278221e+04, 1.337769e+12
4.282499e+04, 1.301921e+12
4.286781e+04, 1.322975e+12
4.291068e+04, 1.298098e+12
4.295359e+04, 1.213814e+12
4.299654e+04, 1.243423e+12
4.303954e+04, 1.213949e+12
4.308258e+04, 1.237181e+12
4.312566e+04, 1.242420e+12
4.316879e+04, 1.230646e+12
4.321196e+04, 1.241373e+12
4.325517e+04, 1.219783e+12
4.329842e+04, 1.216943e+12
4.334172e+04, 1.232305e+12
4.338506e+04, 1.191076e+12
4.342845e+04, 1.194223e+12
4.347188e+04, 1.205044e+12
4.351535e+04, 1.146456e+12
4.355887e+04, 1.147782e+12
4.360242e+04, 1.177689e+12
4.364603e+04, 1.168249e+12
4.368967e+04, 1.132507e+12
4.373336e+04, 1.148122e+12
4.377710e+04, 1.134208e+12
4.382087e+04, 1.130440e+12
4.386469e+04, 1.136116e+12
4.390856e+04, 1.168986e+12
4.395247e+04, 1.114880e+12
4.399642e+04, 1.121830e+12
4.404042e+04, 1.102407e+12
4.408446e+04, 1.079690e+12
4.412854e+04, 1.085206e+12
4.417267e+04, 1.084060e+12
4.421684e+04, 1.081646e+12
4.426106e+04, 1.069198e+12
4.430532e+04, 1.072093e+12
4.434963e+04, 1.029789e+12
4.439398e+04, 1.040666e+12
4.443837e+04, 1.076691e+12
4.448281e+04, 1.058469e+12
4.452729e+04, 1.077255e+12
4.457182e+04, 1.031832e+12
4.461639e+04, 1.058048e+12
4.466101e+04, 1.004001e+12
4.470567e+04, 1.014621e+12
4.475037e+04, 1.055305e+12
4.479512e+04, 9.878107e+11
4.483992e+04, 1.037347e+12
4.488476e+04, 1.015543e+12
4.492964e+04, 1.010643e+12
4.497457e+04, 1.011370e+12
4.501955e+04, 1.006070e+12
4.506457e+04, 9.782199e+11
4.510963e+04, 9.948477e+11
4.515474e+04, 1.006595e+12
4.519990e+04, 9.638943e+11
4.524510e+04, 9.900499e+11
4.529034e+04, 9.849095e+11
4.533563e+04, 9.420751e+11
4.538097e+04, 9.751474e+11
4.542635e+04, 9.805436e+11
4.547177e+04, 9.539188e+11
4.551725e+04, 9.378826e+11
4.556276e+04, 9.688466e+11
4.560833e+04, 9.514501e+11
4.565393e+04, 9.340458e+11
4.569959e+04, 9.394634e+11
4.574529e+04, 9.305489e+11
4.579103e+04, 9.481027e+11
4.583682e+04, 9.349362e+11
4.588266e+04, 9.041836e+11
4.592854e+04, 9.405401e+11
4.597447e+04, 9.118963e+11
4.602045e+04, 9.166064e+11
4.606647e+04, 9.301612e+11
4.611253e+04, 9.291672e+11
4.615865e+04, 8.700042e+11
4.620480e+04, 9.284556e+11
4.625101e+04, 8.646348e+11
4.629726e+04, 9.328924e+11
4.634356e+04, 9.099969e+11
4.638990e+04, 8.745873e+11
4.643629e+04, 9.047932e+11
4.648273e+04, 8.889445e+11
4.652921e+04, 8.825221e+11
4.657574e+04, 9.040527e+11
4.662231e+04, 8.698573e+11
4.666894e+04, 8.734415e+11
4.671561e+04, 8.822574e+11
4.676232e+04, 8.833228e+11
4.680908e+04, 8.482480e+11
4.685589e+04, 8.840848e+11
4.690275e+04, 8.492687e+11
4.694965e+04, 8.919339e+11
4.699660e+04, 8.494656e+11
4.704360e+04, 8.644404e+11
4.709064e+04, 8.355183e+11
4.713773e+04, 8.641729e+11
4.718487e+04, 8.302477e+11
4.723205e+04, 8.708612e+11
4.727929e+04, 8.253195e+11
4.732657e+04, 8.360463e+11
4.737389e+04, 8.358331e+11
4.742127e+04, 8.492396e+11
4.746869e+04, 8.328559e+11
4.751616e+04, 8.279250e+11
4.756367e+04, 8.227484e+11
4.761124e+04, 8.170071e+11
4.765885e+04, 8.001364e+11
4.770651e+04, 8.322468e+11
4.775421e+04, 7.971118e+11
4.780197e+04, 8.011803e+11
4.784977e+04, 7.806853e+11
4.789762e+04, 8.354342e+11
4.794552e+04, 7.684244e+11
4.799346e+04, 8.233109e+11
4.804146e+04, 7.853328e+11
4.808950e+04, 8.016272e+11
4.813759e+04, 7.518087e+11
4.818572e+04, 8.012705e+11
4.823391e+04, 7.944084e+11
4.828214e+04, 8.094748e+11
4.833043e+04, 7.629903e+11
4.837876e+04, 7.768939e+11
4.842713e+04, 7.621429e+11
4.847556e+04, 7.951145e+11
4.852404e+04, 7.573259e+11
4.857256e+04, 7.744515e+11
4.862113e+04, 7.713183e+11
4.866976e+04, 7.600358e+11
4.871842e+04, 7.417001e+11
4.876714e+04, 7.372358e+11
4.881591e+04, 7.814760e+11
4.886473e+04, 7.431122e+11
4.891359e+04, 7.614381e+11
4.896250e+04, 7.107768e+11
4.901147e+04, 7.693647e+11
4.906048e+04, 7.374178e+11
4.910954e+04, 7.369525e+11
4.915865e+04, 7.416001e+11
4.920781e+04, 7.469696e+11
4.925702e+04, 7.108313e+11
4.930627e+04, 7.240711e+11
4.935558e+04, 7.005301e+11
4.940493e+04, 7.474366e+11
4.945434e+04, 7.217837e+11
4.950379e+04, 7.001122e+11
4.955330e+04, 6.945829e+11
4.960285e+04, 7.001003e+11
4.965245e+04, 7.128821e+11
4.970211e+04, 6.708514e+11
4.975181e+04, 7.321953e+11
4.980156e+04, 6.925814e+11
4.985136e+04, 7.201226e+11
4.990121e+04, 6.768976e+11
4.995111e+04, 6.857770e+11
5.000106e+04, 6.696272e+11
5.005107e+04, 6.961624e+11
5.010112e+04, 6.750910e+11
5.015122e+04, 6.758381e+11
5.020137e+04, 6.426155e+11
5.025157e+04, 6.554726e+11
5.030182e+04, 6.593835e+11
5.035212e+04, 6.778889e+11
5.040248e+04, 6.567925e+11
5.045288e+04, 6.421765e+11
5.050333e+04, 7.022638e+11
5.055383e+04, 6.438575e+11
5.060439e+04, 6.489544e+11
5.065499e+04, 6.368110e+11
5.070565e+04, 6.681943e+11
5.075635e+04, 6.558307e+11
5.080711e+04, 6.163897e+11
5.085792e+04, 6.500813e+11
5.090878e+04, 6.286361e+11
5.095968e+04, 6.438981e+11
5.101064e+04, 6.560496e+11
5.106165e+04, 6.201543e+11
5.111272e+04, 6.267900e+11
5.116383e+04, 6.356937e+11
5.121499e+04, 6.192232e+11
5.126621e+04, 6.166667e+11
5.131747e+04, 5.987600e+11
5.136879e+04, 6.432343e+11
5.142016e+04, 6.127546e+11
5.147158e+04, 5.817582e+11
5.152305e+04, 6.454688e+11
5.157457e+04, 6.045667e+11
5.162615e+04, 5.948940e+11
5.167778e+04, 5.921756e+11
5.172945e+04, 5.953349e+11
5.178118e+04, 6.105323e+11
5.183296e+04, 6.002876e+11
5.188480e+04, 6.093424e+11
5.193668e+04, 5.961527e+11
5.198862e+04, 5.692678e+11
5.204061e+04, 5.854921e+11
5.209265e+04, 6.074642e+11
5.214474e+04, 5.908617e+11
5.219688e+04, 5.827655e+11
5.224908e+04, 5.768762e+11
5.230133e+04, 5.760470e+11
5.235363e+04, 5.867902e+11
5.240599e+04, 5.527387e+11
5.245839e+04, 5.737889e+11
5.251085e+04, 5.709099e+11
5.256336e+04, 5.629598e+11
5.261592e+04, 5.971021e+11
5.266854e+04, 5.616492e+11
5.272121e+04, 5.572784e+11
5.277393e+04, 5.499353e+11
5.282670e+04, 5.417887e+11
5.287953e+04, 5.661148e+11
5.293241e+04, 5.488657e+11
5.298534e+04, 5.465016e+11
5.303833e+04, 5.696550e+11
5.309137e+04, 5.290501e+11
5.314446e+04, 5.602497e+11
5.319760e+04, 5.221329e+11
5.325080e+04, 5.465631e+11
5.330405e+04, 5.510753e+11
5.335735e+04, 5.503127e+11
5.341071e+04, 5.306119e+11
5.346412e+04, 5.211298e+11
5.351759e+04, 5.223876e+11
5.357110e+04, 5.451834e+11
5.362468e+04, 5.292991e+11
5.367830e+04, 5.231507e+11
5.373198e+04, 5.365507e+11
5.378571e+04, 5.205498e+11
5.383950e+04, 5.329199e+11
5.389334e+04, 5.108468e+11
5.394723e+04, 5.213611e+11
5.400118e+04, 5.315935e+11
5.405518e+04, 5.087982e+11
5.410923e+04, 4.970469e+11
5.416334e+04, 5.039263e+11
5.421751e+04, 4.988481e+11
5.427172e+04, 5.030652e+11
5.432599e+04, 5.013367e+11
5.438032e+04, 4.943832e+11
5.443470e+04, 5.141145e+11
5.448914e+04, 5.048724e+11
5.454362e+04, 4.911463e+11
5.459817e+04, 5.041375e+11
5.465277e+04, 4.878554e+11
5.470742e+04, 4.932172e+11
5.476213e+04, 4.895152e+11
5.481689e+04, 4.942261e+11
5.487171e+04, 4.934556e+11
5.492658e+04, 4.813105e+11
5.498150e+04, 4.948649e+11
5.503649e+04, 4.937199e+11
5.509152e+04, 4.750641e+11
5.514661e+04, 4.834691e+11
5.520176e+04, 4.795092e+11
5.525696e+04, 4.598613e+11
5.531222e+04, 4.624810e+11
5.536753e+04, 4.904581e+11
5.542290e+04, 4.717915e+11
5.547832e+04, 4.586151e+11
5.553380e+04, 4.746841e+11
5.558933e+04, 4.639205e+11
5.564492e+04, 4.577858e+11
5.570057e+04, 4.663494e+11
5.575627e+04, 4.640577e+11
5.581202e+04, 4.496141e+11
5.586784e+04, 4.545887e+11
5.592370e+04, 4.653988e+11
5.597963e+04, 4.718138e+11
5.603561e+04, 4.537981e+11
5.609164e+04, 4.560879e+11
5.614774e+04, 4.485884e+11
5.620388e+04, 4.416476e+11
5.626009e+04, 4.541427e+11
5.631635e+04, 4.430431e+11
5.637266e+04, 4.574043e+11
5.642904e+04, 4.421893e+11
5.648546e+04, 4.416510e+11
5.654195e+04, 4.344547e+11
5.659849e+04, 4.435713e+11
5.665509e+04, 4.306442e+11
5.671175e+04, 4.523752e+11
5.676846e+04, 4.265906e+11
5.682523e+04, 4.289974e+11
5.688205e+04, 4.330887e+11
5.693893e+04, 4.216621e+11
5.699587e+04, 4.333514e+11
5.705287e+04, 4.448614e+11
5.710992e+04, 4.185683e+11
5.716703e+04, 4.143215e+11
5.722420e+04, 4.208606e+11
5.728142e+04, 4.188684e+11
5.733870e+04, 4.024682e+11
5.739604e+04, 4.195453e+11
5.745344e+04, 4.278308e+11
5.751089e+04, 4.266051e+11
5.756840e+04, 4.198763e+11
5.762597e+04, 4.112241e+11
5.768360e+04, 4.150119e+11
5.774128e+04, 4.167354e+11
5.779902e+04, 4.003520e+11
5.785682e+04, 4.119334e+11
5.791468e+04, 4.137454e+11
5.797259e+04, 3.951233e+11
5.803056e+04, 4.186316e+11
5.808860e+04, 4.167548e+11
5.814668e+04, 3.994017e+11
5.820483e+04, 3.960612e+11
5.826304e+04, 4.049587e+11
5.832130e+04, 3.875307e+11
5.837962e+04, 3.937869e+11
5.843800e+04, 3.957808e+11
5.849644e+04, 3.922999e+11
5.855493e+04, 3.900091e+11
5.861349e+04, 4.058494e+11
5.867210e+04, 4.026766e+11
5.873077e+04, 3.846208e+11
5.878951e+04, 3.904742e+11
5.884829e+04, 3.873991e+11
5.890714e+04, 4.049305e+11
5.896605e+04, 3.806266e+11
5.902502e+04, 3.700529e+11
5.908404e+04, 3.865998e+11
5.914313e+04, 3.884400e+11
5.920227e+04, 3.838676e+11
5.926147e+04, 3.923286e+11
5.932073e+04, 3.812162e+11
5.938005e+04, 3.755607e+11
5.943943e+04, 3.762289e+11
5.949887e+04, 3.712811e+11
5.955837e+04, 3.858253e+11
5.961793e+04, 3.727064e+11
5.967755e+04, 3.612773e+11
5.973723e+04, 3.795317e+11
5.979696e+04, 3.718704e+11
5.985676e+04, 3.681120e+11
5.991662e+04, 3.644447e+11
5.997653e+04, 3.733657e+11
6.003651e+04, 3.714354e+11
6.009655e+04, 3.771621e+11
6.015664e+04, 3.641866e+11
6.021680e+04, 3.590001e+11
6.027702e+04, 3.707763e+11
6.033729e+04, 3.519432e+11
6.039763e+04, 3.515294e+11
6.045803e+04, 3.505068e+11
6.051849e+04, 3.521754e+11
6.057900e+04, 3.578931e+11
6.063958e+04, 3.622984e+11
6.070022e+04, 3.623263e+11
6.076092e+04, 3.559652e+11
6.082168e+04, 3.608350e+11
6.088251e+04, 3.556303e+11
6.094339e+04, 3.593441e+11
6.100433e+04, 3.417092e+11
6.106534e+04, 3.502980e+11
6.112640e+04, 3.344759e+11
6.118753e+04, 3.429868e+11
6.124872e+04, 3.494843e+11
6.130996e+04, 3.571440e+11
6.137127e+04, 3.555190e+11
6.143265e+04, 3.398313e+11
6.149408e+04, 3.452681e+11
6.155557e+04, 3.434291e+11
6.161713e+04, 3.398535e+11
6.167874e+04, 3.429094e+11
6.174042e+04, 3.278634e+11
6.180216e+04, 3.419346e+11
6.186397e+04, 3.330657e+11
6.192583e+04, 3.376118e+11
6.198776e+04, 3.341810e+11
6.204974e+04, 3.347806e+11
6.211179e+04, 3.383425e+11
6.217390e+04, 3.280375e+11
6.223608e+04, 3.343788e+11
6.229831e+04, 3.392596e+11
6.236061e+04, 3.305756e+11
6.242297e+04, 3.178361e+11
6.248540e+04, 3.227206e+11
6.254788e+04, 3.317859e+11
6.261043e+04, 3.195355e+11
6.267304e+04, 3.242407e+11
6.273571e+04, 3.183168e+11
6.279845e+04, 3.178504e+11
6.286125e+04, 3.310472e+11
6.292411e+04, 3.137525e+11
6.298703e+04, 3.144508e+11
6.305002e+04, 3.241056e+11
6.311307e+04, 3.173373e+11
6.317618e+04, 3.102983e+11
6.323936e+04, 3.126833e+11
6.330260e+04, 3.156607e+11
6.336590e+04, 3.083479e+11
6.342927e+04, 3.066834e+11
6.349270e+04, 3.078032e+11
6.355619e+04, 2.962964e+11
6.361975e+04, 3.083886e+11
6.368337e+04, 3.090893e+11
6.374705e+04, 3.042485e+11
6.381080e+04, 2.961996e+11
6.387461e+04, 2.898749e+11
6.393848e+04, 3.028905e+11
6.400242e+04, 3.032993e+11
6.406642e+04, 2.871087e+11
6.413049e+04, 2.844872e+11
6.419462e+04, 2.862313e+11
6.425881e+04, 2.983987e+11
6.432307e+04, 2.826956e+11
6.438740e+04, 2.845447e+11
6.445178e+04, 2.873116e+11
6.451623e+04, 2.750529e+11
6.458075e+04, 2.772696e+11
6.464533e+04, 2.819061e+11
6.470998e+04, 2.564330e+11
6.477469e+04, 2.597406e+11
6.483946e+04, 2.609971e+11
6.490430e+04, 2.721466e+11
6.496921e+04, 2.607892e+11
6.503417e+04, 2.560529e+11
6.509921e+04, 2.732790e+11
6.516431e+04, 2.559667e+11
6.522947e+04, 2.623171e+11
6.529470e+04, 2.539896e+11
6.536000e+04, 2.576952e+11
6.542536e+04, 2.517756e+11
6.549078e+04, 2.531644e+11
6.555627e+04, 2.510008e+11
6.562183e+04, 2.447372e+11
6.568745e+04, 2.418079e+11
6.575314e+04, 2.440120e+11
6.581889e+04, 2.526936e+11
6.588471e+04, 2.473286e+11
6.595059e+04, 2.244870e+11
6.601655e+04, 2.377250e+11
6.608256e+04, 2.478814e+11
6.614864e+04, 2.382268e+11
6.621479e+04, 2.257809e+11
6.628101e+04, 2.295731e+11
6.634729e+04, 2.287771e+11
6.641364e+04, 2.280847e+11
6.648005e+04, 2.391388e+11
6.654653e+04, 2.282708e+11
6.661308e+04, 2.308856e+11
6.667969e+04, 2.296862e+11
6.674637e+04, 2.324691e+11
6.681312e+04, 2.219507e+11
6.687993e+04, 2.193523e+11
6.694681e+04, 2.245166e+11
6.701376e+04, 2.309623e+11
6.708077e+04, 2.312118e+11
6.714785e+04, 2.260752e+11
6.721500e+04, 2.255272e+11
6.728221e+04, 2.220488e+11
6.734949e+04, 2.259296e+11
6.741684e+04, 2.239965e+11
6.748426e+04, 2.156618e+11
6.755175e+04, 2.221669e+11
6.761930e+04, 2.188247e+11
6.768692e+04, 2.139135e+11
6.775460e+04, 2.155088e+11
6.782236e+04, 2.105765e+11
6.789018e+04, 2.126928e+11
6.795807e+04, 2.125019e+11
6.802603e+04, 2.192694e+11
6.809405e+04, 2.134711e+11
6.816215e+04, 2.028597e+11
6.823031e+04, 2.117783e+11
6.829854e+04, 2.087971e+11
6.836684e+04, 2.023354e+11
6.843521e+04, 2.172610e+11
6.850364e+04, 2.111402e+11
6.857215e+04, 2.023008e+11
6.864072e+04, 2.067995e+11
6.870936e+04, 2.042317e+11
6.877807e+04, 2.103469e+11
6.884685e+04, 2.008864e+11
6.891569e+04, 2.051772e+11
6.898461e+04, 2.071974e+11
6.905359e+04, 1.968662e+11
6.912265e+04, 2.043723e+11
6.919177e+04, 1.973308e+11
6.926096e+04, 1.989409e+11
6.933022e+04, 2.029824e+11
6.939955e+04, 1.987852e+11
6.946895e+04, 1.994416e+11
6.953842e+04, 1.963453e+11
6.960796e+04, 1.975495e+11
6.967757e+04, 1.934004e+11
6.974724e+04, 1.977945e+11
6.981699e+04, 1.932165e+11
6.988681e+04, 1.991548e+11
6.995670e+04, 2.014403e+11
7.002665e+04, 1.900287e+11
7.009668e+04, 1.863012e+11
7.016678e+04, 1.913661e+11
7.023694e+04, 1.878844e+11
7.030718e+04, 1.872965e+11
7.037749e+04, 1.982466e+11
7.044786e+04, 1.887945e+11
7.051831e+04, 1.842061e+11
7.058883e+04, 1.925646e+11
7.065942e+04, 1.905259e+11
7.073008e+04, 1.836647e+11
7.080081e+04, 1.840121e+11
7.087161e+04, 1.858814e+11
7.094248e+04, 1.822187e+11
7.101342e+04, 1.833577e+11
7.108444e+04, 1.806226e+11
7.115552e+04, 1.838761e+11
7.122668e+04, 1.791880e+11
7.129790e+04, 1.835622e+11
7.136920e+04, 1.801594e+11
7.144057e+04, 1.790841e+11
7.151201e+04, 1.774074e+11
7.158352e+04, 1.861080e+11
7.165511e+04, 1.838267e+11
7.172676e+04, 1.783423e+11
7.179849e+04, 1.788813e+11
7.187029e+04, 1.789593e+11
7.194216e+04, 1.767984e+11
7.201410e+04, 1.762059e+11
7.208611e+04, 1.741962e+11
7.215820e+04, 1.745513e+11
7.223036e+04, 1.737679e+11
7.230259e+04, 1.741160e+11
7.237489e+04, 1.722736e+11
7.244727e+04, 1.735650e+11
7.251971e+04, 1.743447e+11
7.259223e+04, 1.701405e+11
7.266482e+04, 1.746840e+11
7.273749e+04, 1.660613e+11
7.281023e+04, 1.713447e+11
7.288304e+04, 1.711624e+11
7.295592e+04, 1.651322e+11
7.302888e+04, 1.660972e+11
7.310191e+04, 1.695566e+11
7.317501e+04, 1.698516e+11
7.324818e+04, 1.676570e+11
7.332143e+04, 1.621142e+11
7.339475e+04, 1.625394e+11
7.346815e+04, 1.611356e+11
7.354161e+04, 1.637588e+11
7.361516e+04, 1.615566e+11
7.368877e+04, 1.629493e+11
7.376246e+04, 1.594895e+11
7.383622e+04, 1.616948e+11
7.391006e+04, 1.662511e+11
7.398397e+04, 1.632515e+11
7.405795e+04, 1.614476e+11
7.413201e+04, 1.585419e+11
7.420614e+04, 1.574609e+11
7.428035e+04, 1.568262e+11
7.435463e+04, 1.523087e+11
7.442898e+04, 1.563542e+11
7.450341e+04, 1.600012e+11
7.457792e+04, 1.577571e+11
7.465249e+04, 1.560545e+11
7.472715e+04, 1.568781e+11
7.480187e+04, 1.564376e+11
7.487668e+04, 1.620805e+11
7.495155e+04, 1.496641e+11
7.502650e+04, 1.518823e+11
7.510153e+04, 1.558079e+11
7.517663e+04, 1.520041e+11
7.525181e+04, 1.504012e+11
7.532706e+04, 1.468949e+11
7.540239e+04, 1.488353e+11
7.547779e+04, 1.506982e+11
7.555327e+04, 1.521707e+11
7.562882e+04, 1.543190e+11
7.570445e+04, 1.449361e+11
7.578015e+04, 1.447526e+11
7.585593e+04, 1.426331e+11
7.593179e+04, 1.490534e+11
7.600772e+04, 1.385412e+11
7.608373e+04, 1.420327e+11
7.615981e+04, 1.393936e+11
7.623597e+04, 1.446505e+11
7.631221e+04, 1.383818e+11
7.638852e+04, 1.430026e+11
7.646491e+04, 1.416234e+11
7.654138e+04, 1.417883e+11
7.661792e+04, 1.381077e+11
7.669453e+04, 1.374997e+11
7.677123e+04, 1.399740e+11
7.684800e+04, 1.410731e+11
7.692485e+04, 1.374113e+11
7.700177e+04, 1.391679e+11
7.707877e+04, 1.366181e+11
7.715585e+04, 1.359885e+11
7.723301e+04, 1.356203e+11
7.731024e+04, 1.349754e+11
7.738755e+04, 1.302740e+11
7.746494e+04, 1.306238e+11
7.754241e+04, 1.345808e+11
7.761995e+04, 1.315865e+11
7.769757e+04, 1.300428e+11
7.777527e+04, 1.344650e+11
7.785304e+04, 1.309131e+11
7.793089e+04, 1.313906e+11
7.800882e+04, 1.262647e+11
7.808683e+04, 1.276880e+11
7.816492e+04, 1.295662e+11
7.824308e+04, 1.319401e+11
7.832133e+04, 1.270048e+11
7.839965e+04, 1.312717e+11
7.847805e+04, 1.309011e+11
7.855653e+04, 1.238334e+11
7.863508e+04, 1.250178e+11
7.871372e+04, 1.222157e+11
7.879243e+04, 1.253222e+11
7.887122e+04, 1.217581e+11
7.895010e+04, 1.196607e+11
7.902905e+04, 1.224510e+11
7.910808e+04, 1.221882e+11
7.918718e+04, 1.233890e+11
7.926637e+04, 1.202515e+11
7.934564e+04, 1.241298e+11
7.942498e+04, 1.215737e+11
7.950441e+04, 1.214008e+11
7.958391e+04, 1.197539e+11
7.966350e+04, 1.176431e+11
7.974316e+04, 1.181344e+11
7.982290e+04, 1.146804e+11
7.990273e+04, 1.173142e+11
7.998263e+04, 1.196498e+11
8.006261e+04, 1.172546e+11
8.014267e+04, 1.175593e+11
8.022282e+04, 1.147638e+11
8.030304e+04, 1.205870e+11
8.038334e+04, 1.146710e+11
8.046373e+04, 1.141428e+11
8.054419e+04, 1.146481e+11
8.062473e+04, 1.151476e+11
8.070536e+04, 1.136482e+11
8.078606e+04, 1.122666e+11
8.086685e+04, 1.157622e+11
8.094772e+04, 1.119809e+11
8.102866e+04, 1.095374e+11
8.110969e+04, 1.111291e+11
8.119080e+04, 1.112761e+11
8.127199e+04, 1.101418e+11
8.135326e+04, 1.130919e+11
8.143462e+04, 1.126771e+11
8.151605e+04, 1.104281e+11
8.159757e+04, 1.067495e+11
8.167917e+04, 1.112513e+11
8.176085e+04, 1.107611e+11
8.184261e+04, 1.093580e+11
8.192445e+04, 1.078192e+11
8.200637e+04, 1.048552e+11
8.208838e+04, 1.045035e+11
8.217047e+04, 1.072821e+11
8.225264e+04, 1.063461e+11
8.233489e+04, 1.054639e+11
8.241723e+04, 1.062222e+11
8.249964e+04, 1.074211e+11
8.258214e+04, 1.084573e+11
8.266473e+04, 1.032397e+11
8.274739e+04, 1.047756e+11
8.283014e+04, 1.007372e+11
8.291297e+04, 1.050142e+11
8.299588e+04, 1.035631e+11
8.307888e+04, 1.039825e+11
8.316196e+04, 1.022111e+11
8.324512e+04, 9.979792e+10
8.332836e+04, 9.919646e+10
8.341169e+04, 1.018740e+11
8.349510e+04, 9.993245e+10
8.357860e+04, 1.008493e+11
8.366218e+04, 1.007903e+11
8.374584e+04, 9.680776e+10
8.382958e+04, 9.716746e+10
8.391341e+04, 9.760851e+10
8.399733e+04, 9.997696e+10
8.408132e+04, 9.966435e+10
8.416541e+04, 1.014733e+11
8.424957e+04, 9.718281e+10
8.433382e+04, 9.765830e+10
8.441815e+04, 9.766341e+10
8.450257e+04, 9.666423e+10
8.458708e+04, 9.549345e+10
8.467166e+04, 9.714686e+10
8.475633e+04, 9.722691e+10
8.484109e+04, 9.492390e+10
8.492593e+04, 9.392457e+10
8.501086e+04, 9.168148e+10
8.509587e+04, 9.583817e+10
8.518096e+04, 9.348072e+10
8.526614e+04, 9.671864e+10
8.535141e+04, 9.246988e+10
8.543676e+04, 9.247725e+10
8.552220e+04, 9.262847e+10
8.560772e+04, 9.101597e+10
8.569333e+04, 9.112609e+10
8.577902e+04, 9.304584e+10
8.586480e+04, 9.128427e+10
8.595067e+04, 9.163675e+10
8.603662e+04, 9.228348e+10
8.612265e+04, 9.128900e+10
8.620878e+04, 8.867815e+10
8.629499e+04, 8.970730e+10
8.638128e+04, 9.198149e+10
8.646766e+04, 8.968321e+10
8.655413e+04, 8.882869e+10
8.664068e+04, 9.060036e+10
8.672732e+04, 8.766641e+10
8.681405e+04, 8.551582e+10
8.690087e+04, 8.992303e+10
8.698777e+04, 9.247728e+10
8.707475e+04, 8.620548e+10
8.716183e+04, 8.612741e+10
8.724899e+04, 8.666616e+10
8.733624e+04, 8.471086e+10
8.742358e+04, 8.601203e+10
8.751100e+04, 8.506009e+10
8.759851e+04, 8.237269e+10
8.768611e+04, 8.425944e+10
8.777379e+04, 8.643460e+10
8.786157e+04, 8.403185e+10
8.794943e+04, 8.520720e+10
8.803738e+04, 8.186084e+10
8.812542e+04, 8.355551e+10
8.821354e+04, 8.245740e+10
8.830176e+04, 8.382038e+10
8.839006e+04, 8.239570e+10
8.847845e+04, 8.452493e+10
8.856693e+04, 8.143183e+10
8.865549e+04, 8.220350e+10
8.874415e+04, 8.288859e+10
8.883289e+04, 8.258802e+10
8.892173e+04, 8.070886e+10
8.901065e+04, 8.230865e+10
8.909966e+04, 8.035296e+10
8.918876e+04, 8.015812e+10
8.927795e+04, 8.217610e+10
8.936722e+04, 8.104096e+10
8.945659e+04, 7.794012e+10
8.954605e+04, 7.962796e+10
8.963559e+04, 7.949127e+10
8.972523e+04, 7.824567e+10
8.981496e+04, 7.697596e+10
8.990477e+04, 8.031548e+10
8.999467e+04, 7.839928e+10
9.008467e+04, 7.960534e+10
9.017475e+04, 7.730546e+10
9.026493e+04, 7.805280e+10
9.035519e+04, 7.695787e+10
9.044555e+04, 7.840367e+10
9.053599e+04, 7.811277e+10
9.062653e+04, 7.534628e+10
9.071716e+04, 7.685916e+10
9.080787e+04, 7.754622e+10
9.089868e+04, 7.481032e+10
9.098958e+04, 7.698939e+10
9.108057e+04, 7.466086e+10
9.117165e+04, 7.575725e+10
9.126282e+04, 7.449923e+10
9.135409e+04, 7.426587e+10
9.144544e+04, 7.603318e+10
9.153688e+04, 7.276342e+10
9.162842e+04, 7.514895e+10
9.172005e+04, 7.236158e+10
9.181177e+04, 7.440580e+10
9.190358e+04, 7.355442e+10
9.199549e+04, 7.188680e+10
9.208748e+04, 7.328527e+10
9.217957e+04, 7.326659e+10
9.227175e+04, 7.239358e+10
9.236402e+04, 7.278906e+10
9.245638e+04, 7.147899e+10
9.254884e+04, 6.998299e+10
9.264139e+04, 7.102924e+10
9.273403e+04, 7.081843e+10
9.282676e+04, 7.064763e+10
9.291959e+04, 7.015432e+10
9.301251e+04, 6.970421e+10
9.310552e+04, 7.108111e+10
9.319863e+04, 6.947310e+10
9.329183e+04, 6.890941e+10
9.338512e+04, 6.847032e+10
9.347850e+04, 7.009089e+10
9.357198e+04, 6.966132e+10
9.366556e+04, 6.969758e+10
9.375922e+04, 6.774916e+10
9.385298e+04, 6.846593e+10
9.394683e+04, 6.730192e+10
9.404078e+04, 6.678058e+10
9.413482e+04, 6.685626e+10
9.422896e+04, 6.720679e+10
9.432318e+04, 6.801168e+10
9.441751e+04, 6.451612e+10
9.451192e+04, 6.746407e+10
9.460644e+04, 6.573417e+10
9.470104e+04, 6.712528e+10
9.479574e+04, 6.566229e+10
9.489054e+04, 6.651869e+10
9.498543e+04, 6.460477e+10
9.508042e+04, 6.538208e+10
9.517550e+04, 6.477640e+10
9.527067e+04, 6.530414e+10
9.536594e+04, 6.513939e+10
9.546131e+04, 6.597325e+10
9.555677e+04, 6.461225e+10
9.565233e+04, 6.450401e+10
9.574798e+04, 6.377045e+10
9.584373e+04, 6.294189e+10
9.593957e+04, 6.304448e+10
9.603551e+04, 6.151420e+10
9.613155e+04, 6.297585e+10
9.622768e+04, 6.182362e+10
9.632390e+04, 6.208395e+10
9.642023e+04, 6.156534e+10
9.651665e+04, 6.192042e+10
9.661317e+04, 6.111299e+10
9.670978e+04, 6.157583e+10
9.680649e+04, 6.030721e+10
9.690330e+04, 6.183345e+10
9.700020e+04, 6.031985e+10
9.709720e+04, 6.080043e+10
9.719430e+04, 6.038743e+10
9.729149e+04, 6.050372e+10
9.738878e+04, 6.006032e+10
9.748617e+04, 6.050649e+10
9.758366e+04, 5.981831e+10
9.768124e+04, 6.010521e+10
9.777892e+04, 5.763831e+10
9.787670e+04, 5.941263e+10
9.797458e+04, 5.972723e+10
9.807255e+04, 5.911296e+10
9.817062e+04, 5.762640e+10
9.826879e+04, 5.789080e+10
9.836706e+04, 5.854194e+10
9.846543e+04, 5.797436e+10
9.856390e+04, 5.595197e+10
9.866246e+04, 5.796214e+10
9.876112e+04, 5.873236e+10
9.885988e+04, 5.454803e+10
9.895874e+04, 5.426072e+10
9.905770e+04, 5.623120e+10
9.915676e+04, 5.552067e+10
9.925592e+04, 5.487128e+10
9.935517e+04, 5.620959e+10
9.945453e+04, 5.681215e+10
9.955398e+04, 5.532220e+10
9.965354e+04, 5.505541e+10
9.975319e+04, 5.531595e+10
9.985294e+04, 5.428252e+10
9.995280e+04, 5.430286e+10
1.000527e+05, 5.475994e+10
1.001528e+05, 5.418293e+10
1.002530e+05, 5.461905e+10
1.003532e+05, 5.400304e+10
1.004536e+05, 5.460311e+10
1.005540e+05, 5.355989e+10
1.006546e+05, 5.169781e+10
1.007552e+05, 5.246665e+10
1.008560e+05, 5.145012e+10
1.009568e+05, 5.232430e+10
1.010578e+05, 5.226904e+10
1.011588e+05, 5.180459e+10
1.012600e+05, 5.240070e+10
1.013613e+05, 5.159931e+10
1.014626e+05, 5.158220e+10
1.015641e+05, 5.213224e+10
1.016657e+05, 5.217071e+10
1.017673e+05, 5.080606e+10
1.018691e+05, 5.050776e+10
1.019710e+05, 5.180408e+10
1.020729e+05, 5.055834e+10
1.021750e+05, 4.931393e+10
1.022772e+05, 5.043658e+10
1.023795e+05, 4.927342e+10
1.024818e+05, 4.991315e+10
1.025843e+05, 5.013660e+10
1.026869e+05, 4.944223e+10
1.027896e+05, 4.818759e+10
1.028924e+05, 4.906421e+10
1.029953e+05, 4.939127e+10
1.030983e+05, 4.857452e+10
1.032014e+05, 4.729557e+10
1.033046e+05, 4.771112e+10
1.034079e+05, 4.807799e+10
1.035113e+05, 4.846371e+10
1.036148e+05, 4.683768e+10
1.037184e+05, 4.751457e+10
1.038221e+05, 4.746047e+10
1.039259e+05, 4.759363e+10
1.040299e+05, 4.567010e+10
1.041339e+05, 4.743983e+10
1.042380e+05, 4.537250e+10
1.043423e+05, 4.535535e+10
1.044466e+05, 4.664981e+10
1.045511e+05, 4.573846e+10
1.046556e+05, 4.577057e+10
1.047603e+05, 4.452460e+10
1.048650e+05, 4.553946e+10
1.049699e+05, 4.581795e+10
1.050749e+05, 4.422135e+10
1.051799e+05, 4.508811e+10
1.052851e+05, 4.495943e+10
1.053904e+05, 4.514205e+10
1.054958e+05, 4.434594e+10
1.056013e+05, 4.391051e+10
1.057069e+05, 4.379021e+10
1.058126e+05, 4.378327e+10
1.059184e+05, 4.352372e+10
1.060243e+05, 4.270144e+10
1.061303e+05, 4.188965e+10
1.062365e+05, 4.431790e+10
1.063427e+05, 4.231321e+10
1.064491e+05, 4.365734e+10
1.065555e+05, 4.260444e+10
1.066621e+05, 4.307769e+10
1.067687e+05, 4.271939e+10
1.068755e+05, 4.182997e+10
1.069824e+05, 4.295131e+10
1.070894e+05, 4.046618e+10
1.071964e+05, 4.192941e+10
1.073036e+05, 4.132445e+10
1.074109e+05, 4.103822e+10
1.075184e+05, 4.034646e+10
1.076259e+05, 4.103417e+10
1.077335e+05, 4.121990e+10
1.078412e+05, 4.009517e+10
1.079491e+05, 3.996728e+10
1.080570e+05, 4.118294e+10
1.081651e+05, 4.014666e+10
1.082732e+05, 3.931943e+10
1.083815e+05, 4.127682e+10
1.084899e+05, 3.955992e+10
1.085984e+05, 4.033669e+10
1.087070e+05, 3.972104e+10
1.088157e+05, 3.935338e+10
1.089245e+05, 3.782062e+10
1.090334e+05, 3.832632e+10
1.091425e+05, 3.901156e+10
1.092516e+05, 3.876585e+10
1.093609e+05, 3.771159e+10
1.094702e+05, 3.819551e+10
1.095797e+05, 3.938245e+10
1.096893e+05, 3.737921e+10
1.097990e+05, 3.706476e+10
1.099088e+05, 3.682633e+10
1.100187e+05, 3.800401e+10
1.101287e+05, 3.764400e+10
1.102388e+05, 3.721789e+10
1.103491e+05, 3.775059e+10
1.104594e+05, 3.570182e+10
1.105699e+05, 3.566944e+10
1.106804e+05, 3.667098e+10
1.107911e+05, 3.635103e+10
1.109019e+05, 3.605532e+10
1.110128e+05, 3.697204e+10
1.111238e+05, 3.522882e+10
1.112349e+05, 3.619541e+10
1.113462e+05, 3.539614e+10
1.114575e+05, 3.703303e+10
1.115690e+05, 3.562814e+10
1.116806e+05, 3.552800e+10
1.117922e+05, 3.469014e+10
1.119040e+05, 3.510329e+10
1.120159e+05, 3.395140e+10
1.121279e+05, 3.497038e+10
1.122401e+05, 3.438748e+10
1.123523e+05, 3.464600e+10
1.124647e+05, 3.480070e+10
1.125771e+05, 3.423624e+10
1.126897e+05, 3.407286e+10
1.128024e+05, 3.456438e+10
1.129152e+05, 3.359017e+10
1.130281e+05, 3.321380e+10
1.131411e+05, 3.282858e+10
1.132543e+05, 3.340785e+10
1.133675e+05, 3.322370e+10
1.134809e+05, 3.388531e+10
1.135944e+05, 3.292962e+10
1.137080e+05, 3.257772e+10
1.138217e+05, 3.302544e+10
1.139355e+05, 3.276900e+10
1.140494e+05, 3.313083e+10
1.141635e+05, 3.389102e+10
1.142777e+05, 3.225790e+10
1.143919e+05, 3.149206e+10
1.145063e+05, 3.123638e+10
1.146208e+05, 3.268491e+10
1.147355e+05, 3.153017e+10
1.148502e+05, 3.133400e+10
1.149650e+05, 3.174239e+10
1.150800e+05, 3.165269e+10
1.151951e+05, 3.106599e+10
1.153103e+05, 3.117917e+10
1.154256e+05, 3.045099e+10
1.155410e+05, 2.996257e+10
1.156566e+05, 3.046578e+10
1.157722e+05, 3.030489e+10
1.158880e+05, 3.054089e+10
1.160039e+05, 2.928857e+10
1.161199e+05, 2.994804e+10
1.162360e+05, 3.027709e+10
1.163522e+05, 2.981052e+10
1.164686e+05, 3.019713e+10
1.165851e+05, 3.033622e+10
1.167016e+05, 3.011173e+10
1.168183e+05, 2.963254e+10
1.169352e+05, 2.955830e+10
1.170521e+05, 2.970403e+10
1.171691e+05, 2.888671e+10
1.172863e+05, 2.868006e+10
1.174036e+05, 2.815792e+10
1.175210e+05, 2.851297e+10
1.176385e+05, 2.844526e+10
1.177562e+05, 2.850255e+10
1.178739e+05, 2.882599e+10
1.179918e+05, 2.783568e+10
1.181098e+05, 2.866814e+10
1.182279e+05, 2.817884e+10
1.183461e+05, 2.723698e+10
1.184645e+05, 2.897534e+10
1.185829e+05, 2.696279e+10
1.187015e+05, 2.810077e+10
1.188202e+05, 2.853615e+10
1.189390e+05, 2.793816e+10
1.190580e+05, 2.650471e+10
1.191770e+05, 2.721416e+10
1.192962e+05, 2.697981e+10
1.194155e+05, 2.804274e+10
1.195349e+05, 2.697425e+10
1.196545e+05, 2.637850e+10
1.197741e+05, 2.782786e+10
1.198939e+05, 2.701411e+10
1.200138e+05, 2.646710e+10
1.201338e+05, 2.664916e+10
1.202539e+05, 2.591531e+10
1.203742e+05, 2.709059e+10
1.204946e+05, 2.563815e+10
1.206151e+05, 2.579089e+10
1.207357e+05, 2.707703e+10
1.208564e+05, 2.578180e+10
1.209773e+05, 2.601858e+10
1.210982e+05, 2.608625e+10
1.212193e+05, 2.530476e+10
1.213406e+05, 2.612698e+10
1.214619e+05, 2.474820e+10
1.215834e+05, 2.449407e+10
1.217049e+05, 2.597235e+10
1.218266e+05, 2.567964e+10
1.219485e+05, 2.531624e+10
1.220704e+05, 2.501591e+10
1.221925e+05, 2.480406e+10
1.223147e+05, 2.556989e+10
1.224370e+05, 2.440885e+10
1.225594e+05, 2.452405e+10
1.226820e+05, 2.463465e+10
1.228047e+05, 2.396955e+10
1.229275e+05, 2.436189e+10
1.230504e+05, 2.463711e+10
1.231735e+05, 2.360179e+10
1.232966e+05, 2.418477e+10
1.234199e+05, 2.454169e+10
1.235433e+05, 2.392056e+10
1.236669e+05, 2.342147e+10
1.237906e+05, 2.389995e+10
1.239144e+05, 2.418453e+10
1.240383e+05, 2.317691e+10
1.241623e+05, 2.307946e+10
1.242865e+05, 2.262193e+10
1.244108e+05, 2.272115e+10
1.245352e+05, 2.264854e+10
1.246597e+05, 2.336857e+10
1.247844e+05, 2.279754e+10
1.249091e+05, 2.303786e+10
1.250341e+05, 2.279875e+10
1.251591e+05, 2.268046e+10
1.252842e+05, 2.212749e+10
1.254095e+05, 2.212323e+10
1.255349e+05, 2.223282e+10
1.256605e+05, 2.249761e+10
1.257861e+05, 2.228759e+10
1.259119e+05, 2.201242e+10
1.260378e+05, 2.189308e+10
1.261639e+05, 2.256569e+10
1.262900e+05, 2.206410e+10
1.264163e+05, 2.169960e+10
1.265427e+05, 2.126874e+10
1.266693e+05, 2.082028e+10
1.267960e+05, 2.119127e+10
1.269227e+05, 2.189277e+10
1.270497e+05, 2.158795e+10
1.271767e+05, 2.169795e+10
1.273039e+05, 2.130692e+10
1.274312e+05, 2.202872e+10
1.275586e+05, 2.089396e+10
1.276862e+05, 2.072102e+10
1.278139e+05, 2.045944e+10
1.279417e+05, 2.053621e+10
1.280696e+05, 2.026682e+10
1.281977e+05, 2.061730e+10
1.283259e+05, 2.092783e+10
1.284542e+05, 2.032646e+10
1.285827e+05, 2.057615e+10
1.287113e+05, 2.081317e+10
1.288400e+05, 2.110040e+10
1.289688e+05, 2.030072e+10
1.290978e+05, 2.037640e+10
1.292269e+05, 1.966043e+10
1.293561e+05, 1.966480e+10
1.294855e+05, 2.007987e+10
1.296149e+05, 1.990089e+10
1.297446e+05, 1.970648e+10
1.298743e+05, 1.939762e+10
1.300042e+05, 2.000735e+10
1.301342e+05, 1.961945e+10
1.302643e+05, 1.896329e+10
1.303946e+05, 1.936670e+10
1.305250e+05, 1.915590e+10
1.306555e+05, 1.962669e+10
1.307862e+05, 1.920279e+10
1.309169e+05, 1.869255e+10
1.310479e+05, 1.964141e+10
1.311789e+05, 1.912030e+10
1.313101e+05, 1.922046e+10
1.314414e+05, 1.849384e+10
1.315728e+05, 1.869158e+10
1.317044e+05, 1.858920e+10
1.318361e+05, 1.821871e+10
1.319680e+05, 1.904380e+10
1.320999e+05, 1.760077e+10
1.322320e+05, 1.819800e+10
1.323643e+05, 1.840468e+10
1.324966e+05, 1.856356e+10
1.326291e+05, 1.779635e+10
1.327617e+05, 1.861439e+10
1.328945e+05, 1.775932e+10
1.330274e+05, 1.803675e+10
1.331604e+05, 1.767904e+10
1.332936e+05, 1.776174e+10
1.334269e+05, 1.746791e+10
1.335603e+05, 1.741160e+10
1.336939e+05, 1.791496e+10
1.338276e+05, 1.775155e+10
1.339614e+05, 1.796041e+10
1.340954e+05, 1.790658e+10
1.342294e+05, 1.712145e+10
1.343637e+05, 1.744507e+10
1.344980e+05, 1.689164e+10
1.346325e+05, 1.716773e+10
1.347672e+05, 1.702722e+10
1.349019e+05, 1.686865e+10
1.350368e+05, 1.729561e+10
1.351719e+05, 1.726776e+10
1.353070e+05, 1.659101e+10
1.354424e+05, 1.640306e+10
1.355778e+05, 1.642131e+10
1.357134e+05, 1.625869e+10
1.358491e+05, 1.674600e+10
1.359849e+05, 1.662626e+10
1.361209e+05, 1.648527e+10
1.362570e+05, 1.648373e+10
1.363933e+05, 1.588755e+10
1.365297e+05, 1.594736e+10
1.366662e+05, 1.656746e+10
1.368029e+05, 1.664141e+10
1.369397e+05, 1.574446e+10
1.370766e+05, 1.582390e+10
1.372137e+05, 1.571913e+10
1.373509e+05, 1.620956e+10
1.374883e+05, 1.562136e+10
1.376258e+05, 1.510952e+10
1.377634e+05, 1.543526e+10
1.379012e+05, 1.577424e+10
1.380391e+05, 1.604438e+10
1.381771e+05, 1.562590e+10
1.383153e+05, 1.592703e+10
1.384536e+05, 1.533061e+10
1.385920e+05, 1.517918e+10
1.387306e+05, 1.572791e+10
1.388694e+05, 1.561738e+10
1.390082e+05, 1.535030e+10
1.391472e+05, 1.516729e+10
1.392864e+05, 1.541796e+10
1.394257e+05, 1.521447e+10
1.395651e+05, 1.517379e+10
1.397047e+05, 1.464370e+10
1.398444e+05, 1.513388e+10
1.399842e+05, 1.475616e+10
1.401242e+05, 1.449697e+10
1.402643e+05, 1.495340e+10
1.404046e+05, 1.477970e+10
1.405450e+05, 1.472119e+10
1.406855e+05, 1.415365e+10
1.408262e+05, 1.467243e+10
1.409670e+05, 1.476646e+10
1.411080e+05, 1.445263e+10
1.412491e+05, 1.388118e+10
1.413904e+05, 1.401728e+10
1.415318e+05, 1.395411e+10
1.416733e+05, 1.367543e+10
1.418150e+05, 1.395538e+10
1.419568e+05, 1.380224e+10
1.420987e+05, 1.337619e+10
1.422408e+05, 1.410460e+10
1.423831e+05, 1.395859e+10
1.425255e+05, 1.420908e+10
1.426680e+05, 1.400812e+10
1.428107e+05, 1.390833e+10
1.429535e+05, 1.384384e+10
1.430964e+05, 1.398150e+10
1.432395e+05, 1.316054e+10
1.433828e+05, 1.354217e+10
1.435261e+05, 1.356082e+10
1.436697e+05, 1.345397e+10
1.438133e+05, 1.338636e+10
1.439571e+05, 1.337786e+10
1.441011e+05, 1.323427e+10
1.442452e+05, 1.316343e+10
1.443894e+05, 1.321037e+10
1.445338e+05, 1.296055e+10
1.446784e+05, 1.291121e+10
1.448231e+05, 1.270733e+10
1.449679e+05, 1.252908e+10
1.451128e+05, 1.319583e+10
1.452580e+05, 1.278658e+10
1.454032e+05, 1.287676e+10
1.455486e+05, 1.287161e+10
1.456942e+05, 1.315050e+10
1.458399e+05, 1.268878e+10
1.459857e+05, 1.265663e+10
1.461317e+05, 1.288043e+10
1.462778e+05, 1.201170e+10
1.464241e+05, 1.210610e+10
1.465705e+05, 1.168899e+10
1.467171e+05, 1.214162e+10
1.468638e+05, 1.219764e+10
1.470107e+05, 1.212027e+10
1.471577e+05, 1.182762e+10
1.473048e+05, 1.220507e+10
1.474521e+05, 1.220661e+10
1.475996e+05, 1.240060e+10
1.477472e+05, 1.215656e+10
1.478949e+05, 1.215696e+10
1.480428e+05, 1.242438e+10
1.481909e+05, 1.205127e+10
1.483391e+05, 1.191395e+10
1.484874e+05, 1.185192e+10
1.486359e+05, 1.176473e+10
1.487845e+05, 1.180589e+10
1.489333e+05, 1.151551e+10
1.490823e+05, 1.173003e+10
1.492313e+05, 1.138377e+10
1.493806e+05, 1.176396e+10
1.495299e+05, 1.160273e+10
1.496795e+05, 1.124915e+10
1.498292e+05, 1.116583e+10
1.499790e+05, 1.172148e+10
1.501290e+05, 1.131865e+10
1.502791e+05, 1.157593e+10
1.504294e+05, 1.068602e+10
1.505798e+05, 1.129736e+10
1.507304e+05, 1.164274e+10
1.508811e+05, 1.131568e+10
1.510320e+05, 1.108299e+10
1.511830e+05, 1.105056e+10
1.513342e+05, 1.076176e+10
1.514855e+05, 1.123011e+10
1.516370e+05, 1.109322e+10
1.517887e+05, 1.048958e+10
1.519405e+05, 1.087902e+10
1.520924e+05, 1.116424e+10
1.522445e+05, 1.074814e+10
1.523967e+05, 1.076147e+10
1.525491e+05, 1.042877e+10
1.527017e+05, 1.069442e+10
1.528544e+05, 1.031669e+10
1.530072e+05, 1.045452e+10
1.531602e+05, 1.027162e+10
1.533134e+05, 1.032749e+10
1.534667e+05, 1.015801e+10
1.536202e+05, 1.029129e+10
1.537738e+05, 1.016656e+10
1.539276e+05, 1.010546e+10
1.540815e+05, 1.053595e+10
1.542356e+05, 1.007172e+10
1.543898e+05, 1.013297e+10
1.545442e+05, 9.949709e+09
1.546988e+05, 1.000157e+10
1.548534e+05, 1.002003e+10
1.550083e+05, 1.009433e+10
1.551633e+05, 9.968763e+09
1.553185e+05, 9.945787e+09
1.554738e+05, 1.001020e+10
1.556293e+05, 9.794489e+09
1.557849e+05, 9.901968e+09
1.559407e+05, 9.993047e+09
1.560966e+05, 9.943759e+09
1.562527e+05, 9.932222e+09
1.564090e+05, 9.543418e+09
1.565654e+05, 9.660558e+09
1.567219e+05, 9.728413e+09
1.568787e+05, 9.663196e+09
1.570355e+05, 9.636223e+09
1.571926e+05, 9.459111e+09
1.573498e+05, 9.621143e+09
1.575071e+05, 9.288989e+09
1.576646e+05, 9.329448e+09
1.578223e+05, 9.646326e+09
1.579801e+05, 9.371167e+09
1.581381e+05, 9.130252e+09
1.582962e+05, 9.436240e+09
1.584545e+05, 9.237577e+09
1.586130e+05, 8.989419e+09
1.587716e+05, 9.398385e+09
1.589304e+05, 8.918743e+09
1.590893e+05, 9.090954e+09
1.592484e+05, 8.691217e+09
1.594076e+05, 9.148364e+09
1.595670e+05, 8.848030e+09
1.597266e+05, 8.760713e+09
1.598863e+05, 8.627308e+09
1.600462e+05, 8.709193e+09
1.602063e+05, 8.719671e+09
1.603665e+05, 8.868471e+09
1.605268e+05, 8.649089e+09
1.606874e+05, 8.882935e+09
1.608481e+05, 8.597677e+09
1.610089e+05, 8.591362e+09
1.611699e+05, 8.416358e+09
1.613311e+05, 8.804925e+09
1.614924e+05, 8.480725e+09
1.616539e+05, 8.324089e+09
1.618156e+05, 8.604465e+09
1.619774e+05, 8.483188e+09
1.621394e+05, 8.216209e+09
1.623015e+05, 8.486764e+09
1.624638e+05, 8.558780e+09
1.626263e+05, 8.286712e+09
1.627889e+05, 8.128403e+09
1.629517e+05, 8.407110e+09
1.631146e+05, 8.347670e+09
1.632777e+05, 8.097738e+09
1.634410e+05, 8.480857e+09
1.636045e+05, 8.587577e+09
1.637681e+05, 8.197715e+09
1.639318e+05, 7.868517e+09
1.640958e+05, 8.120857e+09
1.642599e+05, 8.082972e+09
1.644241e+05, 8.118675e+09
1.645885e+05, 8.221755e+09
1.647531e+05, 7.657944e+09
1.649179e+05, 7.989021e+09
1.650828e+05, 8.039578e+09
1.652479e+05, 7.957359e+09
1.654131e+05, 7.903079e+09
1.655785e+05, 7.388342e+09
1.657441e+05, 7.639150e+09
1.659099e+05, 7.728223e+09
1.660758e+05, 7.626984e+09
1.662419e+05, 7.460167e+09
1.664081e+05, 7.513313e+09
1.665745e+05, 7.514754e+09
1.667411e+05, 7.658978e+09
1.669078e+05, 7.740219e+09
1.670747e+05, 7.497111e+09
1.672418e+05, 7.406989e+09
1.674090e+05, 7.557166e+09
1.675765e+05, 7.266846e+09
1.677440e+05, 7.760072e+09
1.679118e+05, 7.384918e+09
1.680797e+05, 7.431354e+09
1.682478e+05, 7.218575e+09
1.684160e+05, 7.047234e+09
1.685844e+05, 7.423832e+09
1.687530e+05, 7.040907e+09
1.689218e+05, 7.177034e+09
1.690907e+05, 7.263063e+09
1.692598e+05, 7.024992e+09
1.694290e+05, 7.327276e+09
1.695985e+05, 7.249894e+09
1.697681e+05, 7.157848e+09
1.699378e+05, 7.043423e+09
1.701078e+05, 7.218113e+09
1.702779e+05, 7.135325e+09
1.704482e+05, 7.157643e+09
1.706186e+05, 7.046779e+09
1.707892e+05, 6.876507e+09
1.709600e+05, 6.979796e+09
1.711310e+05, 6.944445e+09
1.713021e+05, 6.663293e+09
1.714734e+05, 6.740596e+09
1.716449e+05, 6.820521e+09
1.718165e+05, 6.770437e+09
1.719883e+05, 6.671719e+09
1.721603e+05, 6.761372e+09
1.723325e+05, 6.501823e+09
1.725048e+05, 6.509658e+09
1.726773e+05, 6.524592e+09
1.728500e+05, 6.525537e+09
1.730229e+05, 6.688067e+09
1.731959e+05, 6.602309e+09
1.733691e+05, 6.475132e+09
1.735424e+05, 6.459070e+09
1.737160e+05, 6.492081e+09
1.738897e+05, 6.648148e+09
1.740636e+05, 6.322032e+09
1.742377e+05, 6.644756e+09
1.744119e+05, 6.289790e+09
1.745863e+05, 6.334396e+09
1.747609e+05, 6.169276e+09
1.749357e+05, 6.431589e+09
1.751106e+05, 6.351560e+09
1.752857e+05, 6.104386e+09
1.754610e+05, 6.114506e+09
1.756364e+05, 6.287817e+09
1.758121e+05, 6.198540e+09
1.759879e+05, 6.132262e+09
1.761639e+05, 6.186530e+09
1.763400e+05, 5.928307e+09
1.765164e+05, 6.036620e+09
1.766929e+05, 6.082416e+09
1.768696e+05, 6.152487e+09
1.770465e+05, 6.028716e+09
1.772235e+05, 5.963767e+09
1.774007e+05, 6.024028e+09
1.775781e+05, 5.957443e+09
1.777557e+05, 5.835011e+09
1.779335e+05, 6.053781e+09
1.781114e+05, 5.977463e+09
1.782895e+05, 5.884663e+09
1.784678e+05, 5.882039e+09
1.786463e+05, 5.870038e+09
1.788249e+05, 5.957854e+09
1.790037e+05, 5.924064e+09
1.791827e+05, 5.788154e+09
1.793619e+05, 5.627063e+09
1.795413e+05, 5.670094e+09
1.797208e+05, 5.861480e+09
1.799006e+05, 6.082953e+09
1.800805e+05, 5.699096e+09
1.802605e+05, 5.497153e+09
1.804408e+05, 5.694063e+09
1.806212e+05, 5.556226e+09
1.808019e+05, 5.487909e+09
1.809827e+05, 5.533810e+09
1.811636e+05, 5.738828e+09
1.813448e+05, 5.476438e+09
1.815262e+05, 5.395670e+09
1.817077e+05, 5.297941e+09
1.818894e+05, 5.393623e+09
1.820713e+05, 5.555606e+09
1.822533e+05, 5.416544e+09
1.824356e+05, 5.361636e+09
1.826180e+05, 5.363656e+09
1.828007e+05, 5.372955e+09
1.829835e+05, 5.287449e+09
1.831664e+05, 5.321145e+09
1.833496e+05, 5.411210e+09
1.835330e+05, 5.344943e+09
1.837165e+05, 5.230063e+09
1.839002e+05, 5.193299e+09
1.840841e+05, 5.243554e+09
1.842682e+05, 5.084668e+09
1.844525e+05, 5.385594e+09
1.846369e+05, 5.251781e+09
1.848215e+05, 5.312710e+09
1.850064e+05, 5.083557e+09
1.851914e+05, 4.967913e+09
1.853766e+05, 5.032121e+09
1.855619e+05, 4.891165e+09
1.857475e+05, 5.086974e+09
1.859333e+05, 4.857664e+09
1.861192e+05, 4.965310e+09
1.863053e+05, 4.906621e+09
1.864916e+05, 4.975418e+09
1.866781e+05, 4.894995e+09
1.868648e+05, 5.088554e+09
1.870516e+05, 4.911057e+09
1.872387e+05, 4.722390e+09
1.874259e+05, 4.908070e+09
1.876134e+05, 4.716253e+09
1.878010e+05, 4.859097e+09
1.879888e+05, 4.934948e+09
1.881768e+05, 4.803099e+09
1.883649e+05, 4.789904e+09
1.885533e+05, 4.751450e+09
1.887419e+05, 4.738087e+09
1.889306e+05, 4.658192e+09
1.891195e+05, 4.762434e+09
1.893086e+05, 4.665205e+09
1.894980e+05, 4.623310e+09
1.896875e+05, 4.651053e+09
1.898771e+05, 4.701450e+09
1.900670e+05, 4.586910e+09
1.902571e+05, 4.754784e+09
1.904473e+05, 4.581564e+09
1.906378e+05, 4.653570e+09
1.908284e+05, 4.542193e+09
1.910193e+05, 4.717169e+09
1.912103e+05, 4.684153e+09
1.914015e+05, 4.484219e+09
1.915929e+05, 4.646197e+09
1.917845e+05, 4.324129e+09
1.919763e+05, 4.400962e+09
1.921682e+05, 4.252164e+09
1.923604e+05, 4.341987e+09
1.925528e+05, 4.399270e+09
1.927453e+05, 4.423284e+09
1.929381e+05, 4.304102e+09
1.931310e+05, 4.366992e+09
1.933241e+05, 4.324743e+09
1.935175e+05, 4.225434e+09
1.937110e+05, 4.345068e+09
1.939047e+05, 4.441183e+09
1.940986e+05, 4.249946e+09
1.942927e+05, 4.132723e+09
1.944870e+05, 4.239576e+09
1.946815e+05, 4.266971e+09
1.948762e+05, 4.209791e+09
1.950710e+05, 4.353283e+09
1.952661e+05, 4.198781e+09
1.954614e+05, 4.254231e+09
1.956568e+05, 4.048051e+09
1.958525e+05, 3.963902e+09
1.960483e+05, 4.206775e+09
1.962444e+05, 3.939170e+09
1.964406e+05, 3.970974e+09
1.966371e+05, 4.025043e+09
1.968337e+05, 4.078237e+09
1.970305e+05, 4.123969e+09
1.972276e+05, 4.095454e+09
1.974248e+05, 3.961112e+09
1.976222e+05, 4.062120e+09
1.978198e+05, 4.028476e+09
1.980177e+05, 3.901938e+09
1.982157e+05, 3.857296e+09
1.984139e+05, 3.869026e+09
1.986123e+05, 3.942137e+09
1.988109e+05, 3.898314e+09
1.990097e+05, 3.812462e+09
1.992087e+05, 3.945160e+09
1.994080e+05, 3.770756e+09
1.996074e+05, 3.834642e+09
1.998070e+05, 3.981034e+09