wavelength[Angstrom], flux[erg / (cm3 s)]
1.000000e+03, 1.194812e-03
1.001000e+03, 6.252466e-04
1.002001e+03, 2.246042e-04
1.003003e+03, 3.349562e-04
1.004006e+03, 3.747474e-04
1.005010e+03, 4.202137e-04
1.006015e+03, 1.720911e-04
1.007021e+03, 4.444851e-04
1.008028e+03, 3.080726e-04
1.009036e+03, 3.784114e-04
1.010045e+03, 3.674738e-04
1.011055e+03, 4.285166e-04
1.012066e+03, 4.439549e-04
1.013078e+03, 3.331344e-04
1.014091e+03, 2.609314e-04
1.015105e+03, 1.041422e-03
1.016121e+03, 8.096445e-04
1.017137e+03, 3.537573e-04
1.018154e+03, 3.984273e-04
1.019172e+03, 9.557747e-04
1.020191e+03, 1.124129e-03
1.021211e+03, 6.314002e-04
1.022233e+03, 4.067274e-04
1.023255e+03, 3.794855e-04
1.024278e+03, 2.022446e-04
1.025302e+03, 1.358411e-05
1.026328e+03, 2.828353e-05
1.027354e+03, 3.195104e-04
1.028381e+03, 4.401125e-04
1.029410e+03, 7.198534e-04
1.030439e+03, 1.237671e-03
1.031470e+03, 1.190928e-03
1.032501e+03, 4.215053e-03
1.033533e+03, 1.468486e-03
1.034567e+03, 2.766305e-03
1.035602e+03, 1.905212e-03
1.036637e+03, 1.811794e-03
1.037674e+03, 7.434741e-03
1.038712e+03, 3.470447e-03
1.039750e+03, 3.226739e-03
1.040790e+03, 3.091324e-03
1.041831e+03, 5.095965e-03
1.042873e+03, 6.694976e-03
1.043915e+03, 5.164606e-03
1.044959e+03, 7.879944e-03
1.046004e+03, 4.463199e-03
1.047050e+03, 3.575673e-03
1.048097e+03, 4.679453e-03
1.049145e+03, 6.636021e-03
1.050195e+03, 2.837639e-03
1.051245e+03, 4.019095e-03
1.052296e+03, 3.420619e-03
1.053348e+03, 5.379425e-03
1.054402e+03, 7.784123e-03
1.055456e+03, 6.949279e-03
1.056512e+03, 5.322836e-03
1.057568e+03, 5.523858e-03
1.058626e+03, 4.336280e-03
1.059684e+03, 1.249768e-02
1.060744e+03, 2.415688e-02
1.061805e+03, 6.409573e-03
1.062867e+03, 1.555632e-02
1.063929e+03, 2.706975e-02
1.064993e+03, 4.619424e-03
1.066058e+03, 1.510981e-02
1.067124e+03, 1.268892e-02
1.068191e+03, 1.956203e-02
1.069260e+03, 2.064411e-02
1.070329e+03, 1.314935e-02
1.071399e+03, 1.278828e-02
1.072471e+03, 1.452956e-02
1.073543e+03, 2.253998e-02
1.074617e+03, 2.040977e-02
1.075691e+03, 5.002794e-02
1.076767e+03, 2.486895e-02
1.077844e+03, 1.094332e-02
1.078922e+03, 1.963933e-02
1.080001e+03, 4.420472e-02
1.081081e+03, 2.567421e-02
1.082162e+03, 6.053678e-02
1.083244e+03, 6.314633e-02
1.084327e+03, 5.561276e-02
1.085411e+03, 2.231680e-02
1.086497e+03, 4.240397e-02
1.087583e+03, 4.740549e-02
1.088671e+03, 5.143830e-02
1.089759e+03, 4.243088e-02
1.090849e+03, 7.508262e-02
1.091940e+03, 9.237615e-02
1.093032e+03, 8.976315e-02
1.094125e+03, 1.640175e-02
1.095219e+03, 7.969445e-02
1.096314e+03, 9.181207e-02
1.097411e+03, 7.519848e-02
1.098508e+03, 8.720952e-02
1.099607e+03, 3.741329e-02
1.100706e+03, 3.887732e-02
1.101807e+03, 4.810515e-02
1.102909e+03, 2.713824e-01
1.104012e+03, 1.194735e-01
1.105116e+03, 1.453173e-01
1.106221e+03, 1.678126e-01
1.107327e+03, 2.152902e-01
1.108434e+03, 6.684312e-02
1.109543e+03, 1.118344e-01
1.110652e+03, 1.631180e-01
1.111763e+03, 2.652428e-01
1.112875e+03, 2.713354e-01
1.113988e+03, 1.054699e-01
1.115102e+03, 1.167798e-01
1.116217e+03, 7.503225e-02
1.117333e+03, 2.772682e-01
1.118450e+03, 2.391047e-01
1.119569e+03, 1.673631e-01
1.120688e+03, 1.586415e-01
1.121809e+03, 4.071149e-01
1.122931e+03, 4.112571e-01
1.124054e+03, 2.396929e-01
1.125178e+03, 2.148680e-01
1.126303e+03, 9.362162e-01
1.127429e+03, 5.412964e-01
1.128557e+03, 5.096331e-01
1.129685e+03, 4.103377e-01
1.130815e+03, 5.241316e-01
1.131946e+03, 4.793687e-01
1.133078e+03, 6.251612e-01
1.134211e+03, 3.966378e-01
1.135345e+03, 2.983139e-01
1.136480e+03, 5.889100e-01
1.137617e+03, 6.349716e-01
1.138754e+03, 5.941871e-01
1.139893e+03, 3.343523e-01
1.141033e+03, 7.552413e-01
1.142174e+03, 8.902309e-01
1.143316e+03, 5.526176e-01
1.144460e+03, 4.640834e-01
1.145604e+03, 5.860228e-01
1.146750e+03, 6.083587e-01
1.147896e+03, 7.777486e-01
1.149044e+03, 4.960893e-01
1.150193e+03, 5.982868e-01
1.151344e+03, 5.362514e-01
1.152495e+03, 7.736496e-01
1.153647e+03, 7.504354e-01
1.154801e+03, 6.123304e-01
1.155956e+03, 7.034463e-01
1.157112e+03, 1.032745e+00
1.158269e+03, 8.349044e-01
1.159427e+03, 4.774276e-01
1.160587e+03, 1.065676e+00
1.161747e+03, 3.101339e-01
1.162909e+03, 7.327108e-01
1.164072e+03, 5.820068e-01
1.165236e+03, 4.561858e-01
1.166401e+03, 2.557402e-01
1.167568e+03, 5.127068e-01
1.168735e+03, 8.503704e-01
1.169904e+03, 4.444346e-01
1.171074e+03, 5.383022e-01
1.172245e+03, 5.232630e-01
1.173417e+03, 8.158754e-01
1.174590e+03, 7.789470e-01
1.175765e+03, 5.570405e-01
1.176941e+03, 1.121167e+00
1.178118e+03, 1.299997e+00
1.179296e+03, 1.056867e+00
1.180475e+03, 8.802023e-01
1.181656e+03, 1.080584e+00
1.182837e+03, 9.942253e-01
1.184020e+03, 1.111796e+00
1.185204e+03, 8.368513e-01
1.186389e+03, 8.715583e-01
1.187576e+03, 1.124238e+00
1.188763e+03, 1.160067e+00
1.189952e+03, 1.287592e+00
1.191142e+03, 1.089079e+00
1.192333e+03, 8.435879e-01
1.193526e+03, 8.789738e-01
1.194719e+03, 2.123119e+00
1.195914e+03, 4.047594e+00
1.197110e+03, 9.888934e+00
1.198307e+03, 4.011522e+00
1.199505e+03, 5.590486e+00
1.200705e+03, 5.564279e+00
1.201905e+03, 3.737406e+00
1.203107e+03, 5.038317e+00
1.204310e+03, 3.714339e+00
1.205515e+03, 3.308406e+00
1.206720e+03, 3.650022e+00
1.207927e+03, 2.393379e+00
1.209135e+03, 1.980454e+00
1.210344e+03, 7.395182e-01
1.211554e+03, 6.803613e-01
1.212766e+03, 3.308161e-01
1.213979e+03, 1.121293e-01
1.215193e+03, 1.653434e-02
1.216408e+03, 2.726629e-02
1.217624e+03, 1.719453e-01
1.218842e+03, 4.515869e-01
1.220061e+03, 9.662347e-01
1.221281e+03, 1.984278e+00
1.222502e+03, 3.059474e+00
1.223724e+03, 5.151000e+00
1.224948e+03, 5.269172e+00
1.226173e+03, 1.109974e+01
1.227399e+03, 7.535536e+00
1.228627e+03, 1.249331e+01
1.229855e+03, 1.036295e+01
1.231085e+03, 1.908539e+01
1.232316e+03, 2.794395e+01
1.233549e+03, 2.479040e+01
1.234782e+03, 3.205967e+01
1.236017e+03, 2.321898e+01
1.237253e+03, 2.623374e+01
1.238490e+03, 3.862329e+01
1.239729e+03, 5.397681e+01
1.240968e+03, 3.311106e+01
1.242209e+03, 3.571387e+01
1.243452e+03, 5.010592e+01
1.244695e+03, 5.509097e+01
1.245940e+03, 3.434102e+01
1.247186e+03, 5.620870e+01
1.248433e+03, 6.903719e+01
1.249681e+03, 7.125791e+01
1.250931e+03, 5.969712e+01
1.252182e+03, 7.295656e+01
1.253434e+03, 7.253018e+01
1.254688e+03, 9.717494e+01
1.255942e+03, 5.780813e+01
1.257198e+03, 5.070256e+01
1.258455e+03, 5.131553e+01
1.259714e+03, 8.499268e+01
1.260974e+03, 6.957097e+01
1.262235e+03, 8.296910e+01
1.263497e+03, 7.693202e+01
1.264760e+03, 8.890013e+01
1.266025e+03, 8.786784e+01
1.267291e+03, 8.849400e+01
1.268558e+03, 6.825787e+01
1.269827e+03, 1.325792e+02
1.271097e+03, 9.613481e+01
1.272368e+03, 9.859293e+01
1.273640e+03, 1.434895e+02
1.274914e+03, 9.171034e+01
1.276189e+03, 1.012312e+02
1.277465e+03, 1.196052e+02
1.278742e+03, 1.024900e+02
1.280021e+03, 8.668417e+01
1.281301e+03, 1.614308e+02
1.282582e+03, 1.002394e+02
1.283865e+03, 1.709608e+02
1.285149e+03, 1.928642e+02
1.286434e+03, 1.066682e+02
1.287720e+03, 1.672821e+02
1.289008e+03, 2.094027e+02
1.290297e+03, 2.044041e+02
1.291588e+03, 2.340350e+02
1.292879e+03, 1.575931e+02
1.294172e+03, 2.621496e+02
1.295466e+03, 2.665854e+02
1.296762e+03, 2.859649e+02
1.298058e+03, 2.603976e+02
1.299356e+03, 2.705872e+02
1.300656e+03, 3.717995e+02
1.301956e+03, 3.922179e+02
1.303258e+03, 4.872740e+02
1.304562e+03, 3.796271e+02
1.305866e+03, 4.270510e+02
1.307172e+03, 4.565740e+02
1.308479e+03, 5.304464e+02
1.309788e+03, 5.227212e+02
1.311098e+03, 3.872975e+02
1.312409e+03, 3.258132e+02
1.313721e+03, 3.729805e+02
1.315035e+03, 2.905192e+02
1.316350e+03, 3.538523e+02
1.317666e+03, 4.303150e+02
1.318984e+03, 3.498173e+02
1.320303e+03, 3.928285e+02
1.321623e+03, 4.025516e+02
1.322945e+03, 3.196892e+02
1.324268e+03, 3.474898e+02
1.325592e+03, 3.946935e+02
1.326918e+03, 3.735021e+02
1.328244e+03, 4.459126e+02
1.329573e+03, 4.810718e+02
1.330902e+03, 6.326763e+02
1.332233e+03, 6.049822e+02
1.333565e+03, 5.866547e+02
1.334899e+03, 6.434854e+02
1.336234e+03, 6.178922e+02
1.337570e+03, 6.682850e+02
1.338908e+03, 6.729617e+02
1.340247e+03, 7.236360e+02
1.341587e+03, 8.270910e+02
1.342928e+03, 5.852459e+02
1.344271e+03, 8.520797e+02
1.345616e+03, 5.957073e+02
1.346961e+03, 6.535225e+02
1.348308e+03, 8.737218e+02
1.349656e+03, 7.569301e+02
1.351006e+03, 8.661025e+02
1.352357e+03, 1.112203e+03
1.353709e+03, 1.225553e+03
1.355063e+03, 1.319083e+03
1.356418e+03, 1.109752e+03
1.357775e+03, 1.252725e+03
1.359132e+03, 1.317118e+03
1.360492e+03, 1.251949e+03
1.361852e+03, 1.273636e+03
1.363214e+03, 1.139284e+03
1.364577e+03, 1.384271e+03
1.365942e+03, 1.045760e+03
1.367308e+03, 1.247224e+03
1.368675e+03, 1.059430e+03
1.370044e+03, 1.240731e+03
1.371414e+03, 1.129189e+03
1.372785e+03, 1.271578e+03
1.374158e+03, 1.152801e+03
1.375532e+03, 1.462698e+03
1.376908e+03, 1.308316e+03
1.378284e+03, 1.724180e+03
1.379663e+03, 1.633529e+03
1.381042e+03, 1.902494e+03
1.382423e+03, 2.052340e+03
1.383806e+03, 2.064351e+03
1.385190e+03, 2.180489e+03
1.386575e+03, 2.525717e+03
1.387961e+03, 2.712569e+03
1.389349e+03, 3.088014e+03
1.390739e+03, 3.033526e+03
1.392130e+03, 3.510218e+03
1.393522e+03, 3.514209e+03
1.394915e+03, 4.037787e+03
1.396310e+03, 4.354042e+03
1.397706e+03, 4.849988e+03
1.399104e+03, 5.148342e+03
1.400503e+03, 5.794724e+03
1.401904e+03, 6.343399e+03
1.403306e+03, 6.104641e+03
1.404709e+03, 6.905072e+03
1.406114e+03, 7.426126e+03
1.407520e+03, 8.844864e+03
1.408927e+03, 7.502840e+03
1.410336e+03, 7.317527e+03
1.411747e+03, 9.849835e+03
1.413158e+03, 7.901413e+03
1.414571e+03, 9.050460e+03
1.415986e+03, 8.615426e+03
1.417402e+03, 1.109407e+04
1.418819e+03, 9.848280e+03
1.420238e+03, 1.262507e+04
1.421658e+03, 1.139227e+04
1.423080e+03, 1.035360e+04
1.424503e+03, 1.078609e+04
1.425928e+03, 1.372328e+04
1.427354e+03, 1.184676e+04
1.428781e+03, 1.241396e+04
1.430210e+03, 1.343307e+04
1.431640e+03, 1.476037e+04
1.433072e+03, 1.276787e+04
1.434505e+03, 1.439656e+04
1.435939e+03, 1.560918e+04
1.437375e+03, 1.568628e+04
1.438813e+03, 1.754298e+04
1.440251e+03, 1.685332e+04
1.441692e+03, 1.736785e+04
1.443133e+03, 1.817090e+04
1.444576e+03, 1.934407e+04
1.446021e+03, 1.903244e+04
1.447467e+03, 1.704149e+04
1.448914e+03, 2.228712e+04
1.450363e+03, 2.369836e+04
1.451814e+03, 2.145147e+04
1.453266e+03, 2.328116e+04
1.454719e+03, 2.376958e+04
1.456174e+03, 2.524063e+04
1.457630e+03, 2.327064e+04
1.459087e+03, 2.383403e+04
1.460546e+03, 2.311220e+04
1.462007e+03, 2.786297e+04
1.463469e+03, 2.882734e+04
1.464932e+03, 2.871081e+04
1.466397e+03, 3.458503e+04
1.467864e+03, 3.231301e+04
1.469332e+03, 3.247073e+04
1.470801e+03, 3.682996e+04
1.472272e+03, 3.116314e+04
1.473744e+03, 3.071793e+04
1.475218e+03, 3.844759e+04
1.476693e+03, 3.946909e+04
1.478170e+03, 3.676950e+04
1.479648e+03, 3.899022e+04
1.481128e+03, 4.194337e+04
1.482609e+03, 4.403236e+04
1.484091e+03, 4.477244e+04
1.485575e+03, 5.015747e+04
1.487061e+03, 4.307861e+04
1.488548e+03, 4.576007e+04
1.490037e+03, 5.285784e+04
1.491527e+03, 5.140633e+04
1.493018e+03, 4.866515e+04
1.494511e+03, 4.884409e+04
1.496006e+03, 6.011484e+04
1.497502e+03, 5.829051e+04
1.498999e+03, 6.269424e+04
1.500498e+03, 6.553880e+04
1.501999e+03, 6.490962e+04
1.503501e+03, 6.633807e+04
1.505004e+03, 6.698955e+04
1.506509e+03, 7.655264e+04
1.508016e+03, 7.630046e+04
1.509524e+03, 7.817706e+04
1.511033e+03, 7.879205e+04
1.512544e+03, 7.733425e+04
1.514057e+03, 7.533306e+04
1.515571e+03, 7.259322e+04
1.517086e+03, 7.163046e+04
1.518603e+03, 7.190883e+04
1.520122e+03, 7.390229e+04
1.521642e+03, 8.599319e+04
1.523164e+03, 9.023501e+04
1.524687e+03, 8.750897e+04
1.526212e+03, 8.881731e+04
1.527738e+03, 9.146972e+04
1.529266e+03, 8.301324e+04
1.530795e+03, 8.875963e+04
1.532326e+03, 7.642122e+04
1.533858e+03, 7.410413e+04
1.535392e+03, 7.404537e+04
1.536927e+03, 7.735101e+04
1.538464e+03, 7.728599e+04
1.540003e+03, 7.586542e+04
1.541543e+03, 7.161607e+04
1.543084e+03, 8.869202e+04
1.544627e+03, 7.632217e+04
1.546172e+03, 7.660641e+04
1.547718e+03, 7.889011e+04
1.549266e+03, 6.989424e+04
1.550815e+03, 6.923665e+04
1.552366e+03, 6.422856e+04
1.553918e+03, 8.182289e+04
1.555472e+03, 7.867636e+04
1.557028e+03, 1.040157e+05
1.558585e+03, 1.059912e+05
1.560143e+03, 1.170912e+05
1.561703e+03, 1.274381e+05
1.563265e+03, 1.301206e+05
1.564828e+03, 1.494853e+05
1.566393e+03, 1.648778e+05
1.567960e+03, 1.566581e+05
1.569528e+03, 1.733652e+05
1.571097e+03, 1.797417e+05
1.572668e+03, 1.868799e+05
1.574241e+03, 1.779083e+05
1.575815e+03, 1.903340e+05
1.577391e+03, 2.069648e+05
1.578968e+03, 2.174979e+05
1.580547e+03, 1.728200e+05
1.582128e+03, 1.537617e+05
1.583710e+03, 1.891667e+05
1.585294e+03, 1.863790e+05
1.586879e+03, 1.803712e+05
1.588466e+03, 2.069223e+05
1.590054e+03, 1.993785e+05
1.591644e+03, 2.062429e+05
1.593236e+03, 1.584196e+05
1.594829e+03, 1.709192e+05
1.596424e+03, 1.814639e+05
1.598020e+03, 1.827514e+05
1.599618e+03, 1.866498e+05
1.601218e+03, 1.800040e+05
1.602819e+03, 1.823505e+05
1.604422e+03, 1.663920e+05
1.606027e+03, 1.654648e+05
1.607633e+03, 1.969522e+05
1.609240e+03, 1.544110e+05
1.610849e+03, 1.868265e+05
1.612460e+03, 1.548829e+05
1.614073e+03, 1.867128e+05
1.615687e+03, 1.951968e+05
1.617303e+03, 1.703098e+05
1.618920e+03, 2.225116e+05
1.620539e+03, 1.646527e+05
1.622159e+03, 1.750882e+05
1.623781e+03, 2.268055e+05
1.625405e+03, 2.111636e+05
1.627031e+03, 2.304131e+05
1.628658e+03, 2.735534e+05
1.630286e+03, 3.206971e+05
1.631917e+03, 3.365231e+05
1.633549e+03, 3.087840e+05
1.635182e+03, 2.590250e+05
1.636817e+03, 4.019754e+05
1.638454e+03, 3.044813e+05
1.640093e+03, 2.347824e+05
1.641733e+03, 3.354934e+05
1.643374e+03, 4.156734e+05
1.645018e+03, 4.381794e+05
1.646663e+03, 4.185495e+05
1.648309e+03, 5.052651e+05
1.649958e+03, 4.361923e+05
1.651608e+03, 3.614056e+05
1.653259e+03, 5.212762e+05
1.654913e+03, 4.721467e+05
1.656567e+03, 4.151660e+05
1.658224e+03, 5.050748e+05
1.659882e+03, 4.409157e+05
1.661542e+03, 5.831227e+05
1.663204e+03, 5.719430e+05
1.664867e+03, 7.010626e+05
1.666532e+03, 5.429711e+05
1.668198e+03, 4.823873e+05
1.669866e+03, 3.801422e+05
1.671536e+03, 5.153548e+05
1.673208e+03, 5.798010e+05
1.674881e+03, 6.613093e+05
1.676556e+03, 7.126615e+05
1.678233e+03, 7.243234e+05
1.679911e+03, 7.642686e+05
1.681591e+03, 6.195784e+05
1.683272e+03, 7.369256e+05
1.684956e+03, 8.918239e+05
1.686640e+03, 7.988307e+05
1.688327e+03, 8.561560e+05
1.690015e+03, 8.385551e+05
1.691705e+03, 1.063696e+06
1.693397e+03, 8.122338e+05
1.695091e+03, 1.093292e+06
1.696786e+03, 1.454144e+06
1.698482e+03, 8.833952e+05
1.700181e+03, 8.475794e+05
1.701881e+03, 9.141549e+05
1.703583e+03, 8.409126e+05
1.705287e+03, 1.098301e+06
1.706992e+03, 1.389773e+06
1.708699e+03, 1.181869e+06
1.710408e+03, 1.442777e+06
1.712118e+03, 1.534189e+06
1.713830e+03, 1.616541e+06
1.715544e+03, 1.402880e+06
1.717259e+03, 9.176033e+05
1.718977e+03, 1.258035e+06
1.720696e+03, 1.279668e+06
1.722416e+03, 1.385929e+06
1.724139e+03, 1.583800e+06
1.725863e+03, 1.763298e+06
1.727589e+03, 2.209538e+06
1.729316e+03, 2.223002e+06
1.731046e+03, 2.127430e+06
1.732777e+03, 2.473886e+06
1.734510e+03, 1.392846e+06
1.736244e+03, 1.772841e+06
1.737980e+03, 1.711416e+06
1.739718e+03, 1.639663e+06
1.741458e+03, 1.798882e+06
1.743199e+03, 2.059413e+06
1.744943e+03, 2.665473e+06
1.746688e+03, 2.722214e+06
1.748434e+03, 2.491435e+06
1.750183e+03, 2.353180e+06
1.751933e+03, 2.253109e+06
1.753685e+03, 1.798237e+06
1.755439e+03, 2.686787e+06
1.757194e+03, 2.525913e+06
1.758951e+03, 2.496372e+06
1.760710e+03, 2.627948e+06
1.762471e+03, 2.495574e+06
1.764233e+03, 2.794400e+06
1.765998e+03, 2.878469e+06
1.767764e+03, 4.305205e+06
1.769531e+03, 3.593385e+06
1.771301e+03, 2.668767e+06
1.773072e+03, 2.224580e+06
1.774845e+03, 2.949492e+06
1.776620e+03, 3.086805e+06
1.778397e+03, 3.528256e+06
1.780175e+03, 3.659036e+06
1.781955e+03, 4.581255e+06
1.783737e+03, 4.872150e+06
1.785521e+03, 4.799815e+06
1.787306e+03, 5.575728e+06
1.789094e+03, 4.642371e+06
1.790883e+03, 4.085953e+06
1.792674e+03, 3.330833e+06
1.794466e+03, 4.458893e+06
1.796261e+03, 5.344832e+06
1.798057e+03, 4.825169e+06
1.799855e+03, 5.079001e+06
1.801655e+03, 5.888559e+06
1.803457e+03, 6.555237e+06
1.805260e+03, 6.010411e+06
1.807065e+03, 5.919614e+06
1.808872e+03, 7.519402e+06
1.810681e+03, 6.130339e+06
1.812492e+03, 3.751899e+06
1.814304e+03, 4.762687e+06
1.816119e+03, 5.627947e+06
1.817935e+03, 6.562608e+06
1.819753e+03, 5.210751e+06
1.821573e+03, 6.009072e+06
1.823394e+03, 8.260539e+06
1.825218e+03, 7.897133e+06
1.827043e+03, 7.628541e+06
1.828870e+03, 8.436008e+06
1.830699e+03, 8.740379e+06
1.832529e+03, 5.794827e+06
1.834362e+03, 5.502207e+06
1.836196e+03, 6.311168e+06
1.838032e+03, 7.774318e+06
1.839871e+03, 7.147091e+06
1.841710e+03, 7.809736e+06
1.843552e+03, 9.814990e+06
1.845396e+03, 1.010620e+07
1.847241e+03, 1.118430e+07
1.849088e+03, 1.144847e+07
1.850937e+03, 9.487179e+06
1.852788e+03, 8.602681e+06
1.854641e+03, 6.527010e+06
1.856496e+03, 6.773203e+06
1.858352e+03, 8.722584e+06
1.860211e+03, 1.042325e+07
1.862071e+03, 1.082690e+07
1.863933e+03, 9.920493e+06
1.865797e+03, 1.125233e+07
1.867663e+03, 1.401168e+07
1.869530e+03, 1.350153e+07
1.871400e+03, 1.319954e+07
1.873271e+03, 1.130182e+07
1.875144e+03, 1.077792e+07
1.877020e+03, 1.161844e+07
1.878897e+03, 1.094498e+07
1.880776e+03, 1.172535e+07
1.882656e+03, 1.304794e+07
1.884539e+03, 1.555024e+07
1.886424e+03, 1.492200e+07
1.888310e+03, 1.605135e+07
1.890198e+03, 1.686489e+07
1.892088e+03, 2.047930e+07
1.893981e+03, 1.959578e+07
1.895875e+03, 1.772541e+07
1.897770e+03, 1.690375e+07
1.899668e+03, 1.405058e+07
1.901568e+03, 1.646968e+07
1.903469e+03, 2.128042e+07
1.905373e+03, 2.013947e+07
1.907278e+03, 2.157235e+07
1.909186e+03, 2.315419e+07
1.911095e+03, 2.527028e+07
1.913006e+03, 2.565481e+07
1.914919e+03, 2.578953e+07
1.916834e+03, 2.841750e+07
1.918751e+03, 2.400214e+07
1.920669e+03, 2.405212e+07
1.922590e+03, 2.304908e+07
1.924513e+03, 2.420646e+07
1.926437e+03, 2.761762e+07
1.928364e+03, 2.599092e+07
1.930292e+03, 2.978887e+07
1.932222e+03, 3.307467e+07
1.934154e+03, 3.078652e+07
1.936089e+03, 2.857988e+07
1.938025e+03, 3.307643e+07
1.939963e+03, 3.111429e+07
1.941903e+03, 3.869160e+07
1.943845e+03, 3.020760e+07
1.945788e+03, 2.842064e+07
1.947734e+03, 3.494658e+07
1.949682e+03, 3.255906e+07
1.951632e+03, 3.302970e+07
1.953583e+03, 4.404207e+07
1.955537e+03, 3.894580e+07
1.957492e+03, 4.377815e+07
1.959450e+03, 3.932892e+07
1.961409e+03, 4.097920e+07
1.963371e+03, 4.408872e+07
1.965334e+03, 4.584517e+07
1.967299e+03, 4.536143e+07
1.969267e+03, 4.182215e+07
1.971236e+03, 5.078055e+07
1.973207e+03, 4.560408e+07
1.975180e+03, 5.223298e+07
1.977156e+03, 5.165457e+07
1.979133e+03, 5.490526e+07
1.981112e+03, 5.700277e+07
1.983093e+03, 6.103671e+07
1.985076e+03, 6.560857e+07
1.987061e+03, 6.199637e+07
1.989048e+03, 6.168431e+07
1.991037e+03, 5.315187e+07
1.993028e+03, 5.866607e+07
1.995021e+03, 5.450378e+07
1.997016e+03, 5.757902e+07
1.999013e+03, 6.152184e+07
2.001012e+03, 6.177627e+07
2.003013e+03, 6.943565e+07
2.005016e+03, 6.713004e+07
2.007021e+03, 6.481855e+07
2.009028e+03, 7.438426e+07
2.011037e+03, 7.819426e+07
2.013048e+03, 8.443421e+07
2.015062e+03, 8.214143e+07
2.017077e+03, 7.467162e+07
2.019094e+03, 7.868032e+07
2.021113e+03, 7.797118e+07
2.023134e+03, 7.757829e+07
2.025157e+03, 8.466856e+07
2.027182e+03, 7.802967e+07
2.029209e+03, 9.391679e+07
2.031239e+03, 9.301855e+07
2.033270e+03, 9.779829e+07
2.035303e+03, 8.941275e+07
2.037338e+03, 9.808095e+07
2.039376e+03, 1.013828e+08
2.041415e+03, 9.838067e+07
2.043457e+03, 1.000433e+08
2.045500e+03, 9.758385e+07
2.047545e+03, 9.709244e+07
2.049593e+03, 1.072815e+08
2.051643e+03, 1.074059e+08
2.053694e+03, 1.099413e+08
2.055748e+03, 1.059200e+08
2.057804e+03, 1.234974e+08
2.059861e+03, 1.108200e+08
2.061921e+03, 1.137390e+08
2.063983e+03, 1.141794e+08
2.066047e+03, 1.057090e+08
2.068113e+03, 1.275751e+08
2.070181e+03, 1.140007e+08
2.072252e+03, 2.018276e+08
2.074324e+03, 1.852262e+08
2.076398e+03, 1.822556e+08
2.078475e+03, 1.503670e+08
2.080553e+03, 2.282980e+08
2.082634e+03, 2.346160e+08
2.084716e+03, 2.219412e+08
2.086801e+03, 2.304951e+08
2.088888e+03, 2.806141e+08
2.090977e+03, 3.144820e+08
2.093068e+03, 2.971696e+08
2.095161e+03, 2.062752e+08
2.097256e+03, 2.818513e+08
2.099353e+03, 3.029606e+08
2.101452e+03, 2.803441e+08
2.103554e+03, 2.881306e+08
2.105657e+03, 2.689657e+08
2.107763e+03, 2.826606e+08
2.109871e+03, 2.777285e+08
2.111981e+03, 3.489742e+08
2.114093e+03, 3.062808e+08
2.116207e+03, 2.658442e+08
2.118323e+03, 2.899287e+08
2.120441e+03, 3.500876e+08
2.122562e+03, 4.155526e+08
2.124684e+03, 3.352833e+08
2.126809e+03, 3.020087e+08
2.128936e+03, 3.098228e+08
2.131065e+03, 3.746995e+08
2.133196e+03, 3.691381e+08
2.135329e+03, 3.655400e+08
2.137464e+03, 3.892873e+08
2.139602e+03, 3.785303e+08
2.141741e+03, 2.652049e+08
2.143883e+03, 3.967495e+08
2.146027e+03, 4.335768e+08
2.148173e+03, 2.600202e+08
2.150321e+03, 3.029170e+08
2.152472e+03, 3.828756e+08
2.154624e+03, 4.275595e+08
2.156779e+03, 4.625013e+08
2.158935e+03, 4.067592e+08
2.161094e+03, 3.980926e+08
2.163255e+03, 3.511234e+08
2.165419e+03, 3.828977e+08
2.167584e+03, 3.937503e+08
2.169752e+03, 3.626080e+08
2.171921e+03, 4.653162e+08
2.174093e+03, 4.784572e+08
2.176268e+03, 6.643856e+08
2.178444e+03, 2.719791e+08
2.180622e+03, 4.032388e+08
2.182803e+03, 3.911570e+08
2.184986e+03, 4.243097e+08
2.187171e+03, 4.861926e+08
2.189358e+03, 5.852283e+08
2.191547e+03, 5.952771e+08
2.193739e+03, 6.020187e+08
2.195932e+03, 6.857892e+08
2.198128e+03, 6.257896e+08
2.200327e+03, 4.119992e+08
2.202527e+03, 6.432201e+08
2.204729e+03, 5.249191e+08
2.206934e+03, 7.969794e+08
2.209141e+03, 6.697698e+08
2.211350e+03, 6.575716e+08
2.213562e+03, 8.693001e+08
2.215775e+03, 6.279377e+08
2.217991e+03, 5.650396e+08
2.220209e+03, 4.654388e+08
2.222429e+03, 5.223579e+08
2.224651e+03, 7.542845e+08
2.226876e+03, 5.846264e+08
2.229103e+03, 9.322954e+08
2.231332e+03, 7.711441e+08
2.233563e+03, 1.103775e+09
2.235797e+03, 1.337157e+09
2.238033e+03, 6.598524e+08
2.240271e+03, 8.937943e+08
2.242511e+03, 9.536029e+08
2.244754e+03, 1.042160e+09
2.246998e+03, 1.214875e+09
2.249245e+03, 1.178932e+09
2.251495e+03, 1.457605e+09
2.253746e+03, 1.549025e+09
2.256000e+03, 1.290490e+09
2.258256e+03, 6.139580e+08
2.260514e+03, 5.220823e+08
2.262775e+03, 7.390700e+08
2.265037e+03, 8.344316e+08
2.267302e+03, 9.640191e+08
2.269570e+03, 9.823092e+08
2.271839e+03, 1.172986e+09
2.274111e+03, 1.642416e+09
2.276385e+03, 1.327444e+09
2.278662e+03, 1.415022e+09
2.280940e+03, 1.305299e+09
2.283221e+03, 1.381545e+09
2.285504e+03, 1.409182e+09
2.287790e+03, 1.349519e+09
2.290078e+03, 1.500789e+09
2.292368e+03, 1.953183e+09
2.294660e+03, 1.840038e+09
2.296955e+03, 2.155170e+09
2.299252e+03, 1.517403e+09
2.301551e+03, 7.448852e+08
2.303853e+03, 9.528229e+08
2.306156e+03, 1.198569e+09
2.308463e+03, 1.587845e+09
2.310771e+03, 1.387566e+09
2.313082e+03, 1.860643e+09
2.315395e+03, 2.450942e+09
2.317710e+03, 3.001376e+09
2.320028e+03, 2.205763e+09
2.322348e+03, 1.734575e+09
2.324670e+03, 1.989903e+09
2.326995e+03, 1.962698e+09
2.329322e+03, 2.194262e+09
2.331651e+03, 2.961683e+09
2.333983e+03, 2.932243e+09
2.336317e+03, 2.710919e+09
2.338653e+03, 2.891929e+09
2.340992e+03, 3.562835e+09
2.343333e+03, 2.381677e+09
2.345676e+03, 1.246074e+09
2.348022e+03, 1.289597e+09
2.350370e+03, 1.752194e+09
2.352720e+03, 1.701897e+09
2.355073e+03, 1.830588e+09
2.357428e+03, 2.260780e+09
2.359786e+03, 2.753273e+09
2.362145e+03, 2.757506e+09
2.364508e+03, 3.245746e+09
2.366872e+03, 1.377238e+09
2.369239e+03, 1.998172e+09
2.371608e+03, 2.377838e+09
2.373980e+03, 2.044407e+09
2.376354e+03, 2.895571e+09
2.378730e+03, 3.199866e+09
2.381109e+03, 4.042762e+09
2.383490e+03, 3.942307e+09
2.385873e+03, 3.491842e+09
2.388259e+03, 3.404947e+09
2.390648e+03, 3.036202e+09
2.393038e+03, 3.002207e+09
2.395431e+03, 3.731847e+09
2.397827e+03, 4.342981e+09
2.400225e+03, 4.637380e+09
2.402625e+03, 5.577917e+09
2.405027e+03, 6.772849e+09
2.407432e+03, 6.001324e+09
2.409840e+03, 6.724000e+09
2.412250e+03, 5.023205e+09
2.414662e+03, 2.635515e+09
2.417077e+03, 3.290929e+09
2.419494e+03, 3.376404e+09
2.421913e+03, 3.856791e+09
2.424335e+03, 4.290539e+09
2.426759e+03, 5.284716e+09
2.429186e+03, 8.515041e+09
2.431615e+03, 7.719991e+09
2.434047e+03, 5.760144e+09
2.436481e+03, 6.012160e+09
2.438918e+03, 7.008541e+09
2.441356e+03, 6.992152e+09
2.443798e+03, 7.146134e+09
2.446242e+03, 8.291588e+09
2.448688e+03, 1.047397e+10
2.451137e+03, 9.640558e+09
2.453588e+03, 1.039409e+10
2.456041e+03, 1.261571e+10
2.458497e+03, 7.375590e+09
2.460956e+03, 5.486637e+09
2.463417e+03, 5.155709e+09
2.465880e+03, 7.530261e+09
2.468346e+03, 9.843707e+09
2.470814e+03, 9.036304e+09
2.473285e+03, 7.717452e+09
2.475758e+03, 1.201968e+10
2.478234e+03, 1.218374e+10
2.480712e+03, 8.634409e+09
2.483193e+03, 5.421814e+09
2.485676e+03, 6.192295e+09
2.488162e+03, 3.475357e+09
2.490650e+03, 3.753701e+09
2.493141e+03, 6.215235e+09
2.495634e+03, 7.492178e+09
2.498130e+03, 9.005927e+09
2.500628e+03, 8.778368e+09
2.503128e+03, 1.068845e+10
2.505632e+03, 1.096496e+10
2.508137e+03, 9.961545e+09
2.510645e+03, 6.511631e+09
2.513156e+03, 8.697224e+09
2.515669e+03, 8.656066e+09
2.518185e+03, 8.836722e+09
2.520703e+03, 1.039873e+10
2.523224e+03, 7.851155e+09
2.525747e+03, 1.260030e+10
2.528273e+03, 9.913886e+09
2.530801e+03, 1.121211e+10
2.533332e+03, 1.737689e+10
2.535865e+03, 1.700829e+10
2.538401e+03, 2.258002e+10
2.540939e+03, 1.826009e+10
2.543480e+03, 2.066781e+10
2.546024e+03, 1.623762e+10
2.548570e+03, 2.668348e+10
2.551118e+03, 2.149016e+10
2.553669e+03, 3.029000e+10
2.556223e+03, 2.327385e+10
2.558779e+03, 1.912105e+10
2.561338e+03, 2.071248e+10
2.563899e+03, 1.403353e+10
2.566463e+03, 1.198911e+10
2.569030e+03, 1.637877e+10
2.571599e+03, 2.058817e+10
2.574170e+03, 2.153627e+10
2.576745e+03, 1.825137e+10
2.579321e+03, 2.143562e+10
2.581901e+03, 1.975558e+10
2.584483e+03, 1.977151e+10
2.587067e+03, 1.772140e+10
2.589654e+03, 1.371215e+10
2.592244e+03, 1.780885e+10
2.594836e+03, 1.991482e+10
2.597431e+03, 2.889747e+10
2.600028e+03, 2.276117e+10
2.602628e+03, 2.915364e+10
2.605231e+03, 3.378701e+10
2.607836e+03, 2.536586e+10
2.610444e+03, 2.878134e+10
2.613054e+03, 2.363594e+10
2.615667e+03, 2.739923e+10
2.618283e+03, 2.952099e+10
2.620901e+03, 3.390694e+10
2.623522e+03, 3.434167e+10
2.626146e+03, 4.439297e+10
2.628772e+03, 4.114092e+10
2.631401e+03, 4.898112e+10
2.634032e+03, 5.229960e+10
2.636666e+03, 5.817802e+10
2.639303e+03, 7.829741e+10
2.641942e+03, 5.699734e+10
2.644584e+03, 4.554498e+10
2.647229e+03, 3.409098e+10
2.649876e+03, 4.857678e+10
2.652526e+03, 4.531889e+10
2.655178e+03, 7.093223e+10
2.657834e+03, 6.546969e+10
2.660491e+03, 5.278460e+10
2.663152e+03, 6.310340e+10
2.665815e+03, 4.946967e+10
2.668481e+03, 4.812361e+10
2.671149e+03, 3.624660e+10
2.673820e+03, 5.277815e+10
2.676494e+03, 6.366537e+10
2.679171e+03, 5.654065e+10
2.681850e+03, 5.664155e+10
2.684532e+03, 6.932525e+10
2.687216e+03, 7.025443e+10
2.689904e+03, 5.200190e+10
2.692593e+03, 4.867210e+10
2.695286e+03, 4.339950e+10
2.697981e+03, 4.829243e+10
2.700679e+03, 6.547184e+10
2.703380e+03, 6.628195e+10
2.706083e+03, 8.818149e+10
2.708789e+03, 7.960341e+10
2.711498e+03, 8.059995e+10
2.714210e+03, 6.993209e+10
2.716924e+03, 6.389744e+10
2.719641e+03, 3.479623e+10
2.722360e+03, 4.148656e+10
2.725083e+03, 5.173394e+10
2.727808e+03, 6.908306e+10
2.730536e+03, 6.985141e+10
2.733266e+03, 6.215088e+10
2.736000e+03, 5.696837e+10
2.738736e+03, 6.214726e+10
2.741474e+03, 7.904253e+10
2.744216e+03, 4.909396e+10
2.746960e+03, 9.024382e+10
2.749707e+03, 7.245602e+10
2.752457e+03, 8.875270e+10
2.755209e+03, 8.034519e+10
2.757964e+03, 6.919679e+10
2.760722e+03, 1.015876e+11
2.763483e+03, 9.665913e+10
2.766246e+03, 1.461445e+11
2.769013e+03, 1.064007e+11
2.771782e+03, 1.242904e+11
2.774554e+03, 1.377966e+11
2.777328e+03, 1.436729e+11
2.780105e+03, 8.435624e+10
2.782886e+03, 8.821732e+10
2.785668e+03, 1.279009e+11
2.788454e+03, 1.025123e+11
2.791243e+03, 1.527568e+11
2.794034e+03, 1.522346e+11
2.796828e+03, 1.068606e+11
2.799625e+03, 1.070563e+11
2.802424e+03, 1.071958e+11
2.805227e+03, 1.567562e+11
2.808032e+03, 1.112960e+11
2.810840e+03, 1.577685e+11
2.813651e+03, 1.495937e+11
2.816464e+03, 1.980546e+11
2.819281e+03, 1.812949e+11
2.822100e+03, 1.387659e+11
2.824922e+03, 1.568525e+11
2.827747e+03, 1.330554e+11
2.830575e+03, 1.609775e+11
2.833406e+03, 1.276697e+11
2.836239e+03, 1.238816e+11
2.839075e+03, 1.305171e+11
2.841914e+03, 1.260079e+11
2.844756e+03, 1.018426e+11
2.847601e+03, 8.370888e+10
2.850448e+03, 5.937272e+10
2.853299e+03, 2.549762e+10
2.856152e+03, 7.479679e+10
2.859008e+03, 1.021150e+11
2.861867e+03, 1.286453e+11
2.864729e+03, 1.387237e+11
2.867594e+03, 1.598212e+11
2.870462e+03, 1.782610e+11
2.873332e+03, 1.619057e+11
2.876205e+03, 1.667633e+11
2.879082e+03, 1.988167e+11
2.881961e+03, 1.970207e+11
2.884843e+03, 2.850965e+11
2.887727e+03, 3.180796e+11
2.890615e+03, 3.484278e+11
2.893506e+03, 3.346091e+11
2.896399e+03, 3.093558e+11
2.899296e+03, 3.223075e+11
2.902195e+03, 2.994524e+11
2.905097e+03, 3.859635e+11
2.908002e+03, 4.187457e+11
2.910910e+03, 3.635467e+11
2.913821e+03, 3.492645e+11
2.916735e+03, 5.356050e+11
2.919652e+03, 4.573994e+11
2.922571e+03, 4.864852e+11
2.925494e+03, 4.541015e+11
2.928420e+03, 2.487794e+11
2.931348e+03, 3.460745e+11
2.934279e+03, 4.342518e+11
2.937214e+03, 2.261235e+11
2.940151e+03, 4.094369e+11
2.943091e+03, 2.589863e+11
2.946034e+03, 3.479884e+11
2.948980e+03, 2.272763e+11
2.951929e+03, 4.733845e+11
2.954881e+03, 2.524380e+11
2.957836e+03, 2.327190e+11
2.960794e+03, 5.070855e+11
2.963754e+03, 4.535735e+11
2.966718e+03, 1.748203e+11
2.969685e+03, 2.097982e+11
2.972655e+03, 2.159122e+11
2.975627e+03, 2.826334e+11
2.978603e+03, 4.861769e+11
2.981581e+03, 3.527085e+11
2.984563e+03, 2.066077e+11
2.987548e+03, 3.239820e+11
2.990535e+03, 5.342635e+11
2.993526e+03, 3.252271e+11
2.996519e+03, 2.421916e+11
2.999516e+03, 3.127281e+11
3.002515e+03, 1.812499e+11
3.005518e+03, 3.382044e+11
3.008523e+03, 2.045641e+11
3.011532e+03, 4.231400e+11
3.014543e+03, 4.451298e+11
3.017558e+03, 3.546218e+11
3.020575e+03, 1.463753e+11
3.023596e+03, 2.537396e+11
3.026620e+03, 2.472193e+11
3.029646e+03, 5.701274e+11
3.032676e+03, 6.636819e+11
3.035709e+03, 6.619351e+11
3.038744e+03, 3.345318e+11
3.041783e+03, 4.825556e+11
3.044825e+03, 5.776745e+11
3.047870e+03, 3.550798e+11
3.050918e+03, 4.622774e+11
3.053968e+03, 6.008812e+11
3.057022e+03, 4.895795e+11
3.060079e+03, 3.174820e+11
3.063140e+03, 7.955536e+11
3.066203e+03, 9.643510e+11
3.069269e+03, 9.530198e+11
3.072338e+03, 1.155089e+12
3.075410e+03, 8.210007e+11
3.078486e+03, 1.040676e+12
3.081564e+03, 5.844021e+11
3.084646e+03, 5.361670e+11
3.087731e+03, 1.038808e+12
3.090818e+03, 7.562357e+11
3.093909e+03, 3.354790e+11
3.097003e+03, 7.613488e+11
3.100100e+03, 7.289822e+11
3.103200e+03, 6.993808e+11
3.106303e+03, 1.419520e+12
3.109410e+03, 1.712166e+12
3.112519e+03, 1.571604e+12
3.115632e+03, 1.548002e+12
3.118747e+03, 1.442029e+12
3.121866e+03, 1.557589e+12
3.124988e+03, 1.925514e+12
3.128113e+03, 2.126959e+12
3.131241e+03, 1.425535e+12
3.134372e+03, 1.102115e+12
3.137507e+03, 1.942974e+12
3.140644e+03, 2.046496e+12
3.143785e+03, 2.035567e+12
3.146928e+03, 1.870843e+12
3.150075e+03, 2.313135e+12
3.153225e+03, 2.071685e+12
3.156379e+03, 2.381121e+12
3.159535e+03, 1.631691e+12
3.162695e+03, 1.633610e+12
3.165857e+03, 2.109508e+12
3.169023e+03, 2.360417e+12
3.172192e+03, 2.421834e+12
3.175364e+03, 3.073768e+12
3.178540e+03, 2.879079e+12
3.181718e+03, 1.815292e+12
3.184900e+03, 1.133488e+12
3.188085e+03, 1.978638e+12
3.191273e+03, 1.668021e+12
3.194464e+03, 1.487771e+12
3.197659e+03, 1.840862e+12
3.200856e+03, 1.533696e+12
3.204057e+03, 2.799890e+12
3.207261e+03, 2.955432e+12
3.210469e+03, 2.520403e+12
3.213679e+03, 1.819363e+12
3.216893e+03, 1.861135e+12
3.220110e+03, 2.505392e+12
3.223330e+03, 1.984486e+12
3.226553e+03, 1.645909e+12
3.229780e+03, 1.913748e+12
3.233009e+03, 2.288507e+12
3.236242e+03, 1.684377e+12
3.239479e+03, 2.919837e+12
3.242718e+03, 2.575938e+12
3.245961e+03, 2.431338e+12
3.249207e+03, 1.989316e+12
3.252456e+03, 2.973361e+12
3.255708e+03, 3.478234e+12
3.258964e+03, 3.927881e+12
3.262223e+03, 4.009051e+12
3.265485e+03, 3.047521e+12
3.268751e+03, 4.694792e+12
3.272020e+03, 2.951369e+12
3.275292e+03, 2.942525e+12
3.278567e+03, 4.297639e+12
3.281845e+03, 4.144421e+12
3.285127e+03, 3.496201e+12
3.288412e+03, 3.471241e+12
3.291701e+03, 4.662121e+12
3.294993e+03, 5.274494e+12
3.298288e+03, 4.844678e+12
3.301586e+03, 4.618864e+12
3.304887e+03, 3.263181e+12
3.308192e+03, 3.023912e+12
3.311500e+03, 4.027856e+12
3.314812e+03, 3.483364e+12
3.318127e+03, 3.541152e+12
3.321445e+03, 4.091272e+12
3.324766e+03, 3.424540e+12
3.328091e+03, 5.195840e+12
3.331419e+03, 4.209073e+12
3.334751e+03, 3.257517e+12
3.338085e+03, 3.574848e+12
3.341423e+03, 3.443146e+12
3.344765e+03, 3.662000e+12
3.348110e+03, 4.806401e+12
3.351458e+03, 2.138419e+12
3.354809e+03, 3.623624e+12
3.358164e+03, 3.746179e+12
3.361522e+03, 1.114515e+12
3.364884e+03, 4.142874e+12
3.368249e+03, 2.730745e+12
3.371617e+03, 1.258244e+12
3.374988e+03, 2.782400e+12
3.378363e+03, 3.482308e+12
3.381742e+03, 2.370048e+12
3.385124e+03, 3.656800e+12
3.388509e+03, 3.514354e+12
3.391897e+03, 2.804046e+12
3.395289e+03, 2.993525e+12
3.398684e+03, 4.389076e+12
3.402083e+03, 4.626283e+12
3.405485e+03, 3.577061e+12
3.408891e+03, 3.457806e+12
3.412300e+03, 3.260290e+12
3.415712e+03, 1.437420e+12
3.419128e+03, 3.730313e+12
3.422547e+03, 4.614655e+12
3.425969e+03, 3.258741e+12
3.429395e+03, 4.492807e+12
3.432825e+03, 3.232938e+12
3.436257e+03, 2.993048e+12
3.439694e+03, 1.642926e+12
3.443133e+03, 9.507250e+11
3.446576e+03, 1.546124e+12
3.450023e+03, 3.837063e+12
3.453473e+03, 2.582857e+12
3.456927e+03, 4.362257e+12
3.460383e+03, 2.941380e+12
3.463844e+03, 3.048606e+12
3.467308e+03, 2.062421e+12
3.470775e+03, 4.442766e+12
3.474246e+03, 3.205527e+12
3.477720e+03, 1.768179e+12
3.481198e+03, 5.527522e+12
3.484679e+03, 4.892200e+12
3.488164e+03, 4.893890e+12
3.491652e+03, 1.759595e+12
3.495143e+03, 2.994079e+12
3.498639e+03, 2.769441e+12
3.502137e+03, 4.558671e+12
3.505639e+03, 7.372716e+12
3.509145e+03, 6.453833e+12
3.512654e+03, 3.864233e+12
3.516167e+03, 2.586152e+12
3.519683e+03, 5.233515e+12
3.523203e+03, 2.859269e+12
3.526726e+03, 1.630978e+12
3.530253e+03, 4.889216e+12
3.533783e+03, 6.236222e+12
3.537317e+03, 7.143811e+12
3.540854e+03, 7.977576e+12
3.544395e+03, 8.454403e+12
3.547939e+03, 6.371820e+12
3.551487e+03, 7.348890e+12
3.555039e+03, 5.452899e+12
3.558594e+03, 4.672102e+12
3.562152e+03, 5.857941e+12
3.565714e+03, 3.022283e+12
3.569280e+03, 2.759522e+12
3.572849e+03, 2.859833e+12
3.576422e+03, 3.287957e+12
3.579999e+03, 1.496185e+12
3.583579e+03, 2.269079e+12
3.587162e+03, 1.982625e+12
3.590749e+03, 4.232133e+12
3.594340e+03, 2.076230e+12
3.597934e+03, 4.511810e+12
3.601532e+03, 6.410419e+12
3.605134e+03, 2.705011e+12
3.608739e+03, 2.443884e+12
3.612348e+03, 4.141601e+12
3.615960e+03, 6.192024e+12
3.619576e+03, 2.673777e+12
3.623196e+03, 5.124228e+12
3.626819e+03, 7.129510e+12
3.630446e+03, 4.982491e+12
3.634076e+03, 3.964904e+12
3.637710e+03, 5.030873e+12
3.641348e+03, 7.784818e+12
3.644989e+03, 3.587480e+12
3.648634e+03, 2.496702e+12
3.652283e+03, 5.254010e+12
3.655935e+03, 6.397645e+12
3.659591e+03, 9.979761e+12
3.663251e+03, 9.907324e+12
3.666914e+03, 1.081048e+13
3.670581e+03, 8.215657e+12
3.674251e+03, 9.025117e+12
3.677926e+03, 7.410953e+12
3.681604e+03, 3.967739e+12
3.685285e+03, 6.540496e+12
3.688971e+03, 5.002452e+12
3.692660e+03, 9.845611e+12
3.696352e+03, 9.188571e+12
3.700049e+03, 1.059502e+13
3.703749e+03, 6.303771e+12
3.707452e+03, 2.722684e+12
3.711160e+03, 4.870374e+12
3.714871e+03, 7.148832e+12
3.718586e+03, 3.135655e+12
3.722304e+03, 1.448850e+12
3.726027e+03, 4.455442e+12
3.729753e+03, 3.709468e+12
3.733482e+03, 2.829891e+12
3.737216e+03, 1.449636e+12
3.740953e+03, 3.413320e+12
3.744694e+03, 2.837502e+12
3.748439e+03, 1.670385e+12
3.752187e+03, 3.430097e+12
3.755939e+03, 6.276776e+12
3.759695e+03, 3.812436e+12
3.763455e+03, 5.266157e+12
3.767219e+03, 4.418285e+12
3.770986e+03, 9.291742e+12
3.774757e+03, 1.167223e+13
3.778532e+03, 1.068231e+13
3.782310e+03, 1.310953e+13
3.786092e+03, 8.948833e+12
3.789878e+03, 5.677244e+12
3.793668e+03, 9.054543e+12
3.797462e+03, 6.647231e+12
3.801259e+03, 6.206783e+12
3.805061e+03, 1.173373e+13
3.808866e+03, 9.019655e+12
3.812675e+03, 8.895847e+12
3.816487e+03, 5.073701e+12
3.820304e+03, 3.935791e+12
3.824124e+03, 3.315999e+12
3.827948e+03, 3.040283e+12
3.831776e+03, 4.976387e+12
3.835608e+03, 4.696780e+12
3.839444e+03, 4.928053e+12
3.843283e+03, 6.211299e+12
3.847126e+03, 9.327910e+12
3.850973e+03, 6.678913e+12
3.854824e+03, 6.817358e+12
3.858679e+03, 2.633477e+12
3.862538e+03, 3.667426e+12
3.866400e+03, 6.289195e+12
3.870267e+03, 9.884877e+12
3.874137e+03, 7.045934e+12
3.878011e+03, 4.729303e+12
3.881889e+03, 7.431848e+12
3.885771e+03, 4.856463e+12
3.889657e+03, 5.369908e+12
3.893547e+03, 9.888935e+12
3.897440e+03, 5.829277e+12
3.901338e+03, 5.896018e+12
3.905239e+03, 7.429886e+12
3.909144e+03, 8.576701e+12
3.913053e+03, 1.279767e+13
3.916966e+03, 1.092779e+13
3.920883e+03, 5.667302e+12
3.924804e+03, 5.464241e+12
3.928729e+03, 4.992889e+12
3.932658e+03, 2.931533e+12
3.936590e+03, 3.739788e+12
3.940527e+03, 7.738966e+12
3.944467e+03, 3.696271e+12
3.948412e+03, 6.354059e+12
3.952360e+03, 1.042694e+13
3.956313e+03, 9.564951e+12
3.960269e+03, 5.018806e+12
3.964229e+03, 3.785008e+12
3.968194e+03, 3.845317e+12
3.972162e+03, 6.059233e+12
3.976134e+03, 1.047976e+13
3.980110e+03, 1.458551e+13
3.984090e+03, 1.155710e+13
3.988074e+03, 1.685069e+13
3.992062e+03, 1.351983e+13
3.996054e+03, 1.771787e+13
4.000050e+03, 1.285673e+13
4.004050e+03, 1.918268e+13
4.008055e+03, 1.480426e+13
4.012063e+03, 1.537734e+13
4.016075e+03, 2.093484e+13
4.020091e+03, 1.832955e+13
4.024111e+03, 1.598905e+13
4.028135e+03, 1.776179e+13
4.032163e+03, 7.444341e+12
4.036195e+03, 1.002288e+13
4.040231e+03, 1.994182e+13
4.044272e+03, 1.401467e+13
4.048316e+03, 9.694707e+12
4.052364e+03, 2.058730e+13
4.056417e+03, 1.956587e+13
4.060473e+03, 1.717660e+13
4.064533e+03, 1.089260e+13
4.068598e+03, 1.784585e+13
4.072667e+03, 1.297914e+13
4.076739e+03, 1.781015e+13
4.080816e+03, 1.858509e+13
4.084897e+03, 1.962259e+13
4.088982e+03, 2.650511e+13
4.093071e+03, 2.200339e+13
4.097164e+03, 1.595728e+13
4.101261e+03, 1.283323e+13
4.105362e+03, 1.721439e+13
4.109468e+03, 1.633818e+13
4.113577e+03, 1.555345e+13
4.117691e+03, 1.577962e+13
4.121808e+03, 1.706956e+13
4.125930e+03, 2.014168e+13
4.130056e+03, 1.599164e+13
4.134186e+03, 1.179548e+13
4.138320e+03, 2.004409e+13
4.142459e+03, 1.471253e+13
4.146601e+03, 1.440448e+13
4.150748e+03, 1.877796e+13
4.154898e+03, 1.873743e+13
4.159053e+03, 2.044545e+13
4.163212e+03, 2.355463e+13
4.167376e+03, 1.668384e+13
4.171543e+03, 1.612296e+13
4.175714e+03, 1.499300e+13
4.179890e+03, 2.051393e+13
4.184070e+03, 1.752057e+13
4.188254e+03, 1.608533e+13
4.192442e+03, 1.848442e+13
4.196635e+03, 1.824553e+13
4.200831e+03, 1.263598e+13
4.205032e+03, 1.351085e+13
4.209237e+03, 1.458362e+13
4.213447e+03, 1.259264e+13
4.217660e+03, 9.232178e+12
4.221878e+03, 6.793736e+12
4.226100e+03, 3.409057e+12
4.230326e+03, 4.033985e+12
4.234556e+03, 7.119258e+12
4.238791e+03, 1.049538e+13
4.243029e+03, 1.372942e+13
4.247272e+03, 1.613665e+13
4.251520e+03, 1.244584e+13
4.255771e+03, 8.157890e+12
4.260027e+03, 1.432425e+13
4.264287e+03, 1.970856e+13
4.268551e+03, 1.882908e+13
4.272820e+03, 1.138669e+13
4.277093e+03, 1.017501e+13
4.281370e+03, 1.846285e+13
4.285651e+03, 1.416073e+13
4.289937e+03, 1.014267e+13
4.294227e+03, 1.467434e+13
4.298521e+03, 1.662210e+13
4.302819e+03, 1.111789e+13
4.307122e+03, 1.338210e+13
4.311429e+03, 1.956667e+13
4.315741e+03, 2.179432e+13
4.320057e+03, 2.039068e+13
4.324377e+03, 2.153185e+13
4.328701e+03, 1.922728e+13
4.333030e+03, 2.748144e+13
4.337363e+03, 2.560374e+13
4.341700e+03, 2.389149e+13
4.346042e+03, 2.428919e+13
4.350388e+03, 2.854743e+13
4.354738e+03, 2.058220e+13
4.359093e+03, 2.595109e+13
4.363452e+03, 3.002970e+13
4.367815e+03, 3.015016e+13
4.372183e+03, 2.693121e+13
4.376555e+03, 2.134105e+13
4.380932e+03, 2.211020e+13
4.385313e+03, 1.301900e+13
4.389698e+03, 2.314762e+13
4.394088e+03, 2.657068e+13
4.398482e+03, 2.923451e+13
4.402881e+03, 2.453056e+13
4.407283e+03, 1.507451e+13
4.411691e+03, 2.659758e+13
4.416102e+03, 2.241045e+13
4.420518e+03, 3.077998e+13
4.424939e+03, 2.067388e+13
4.429364e+03, 2.136345e+13
4.433793e+03, 2.322187e+13
4.438227e+03, 2.040003e+13
4.442665e+03, 2.565421e+13
4.447108e+03, 2.969233e+13
4.451555e+03, 2.692011e+13
4.456007e+03, 1.388585e+13
4.460463e+03, 2.045891e+13
4.464923e+03, 2.429508e+13
4.469388e+03, 2.874164e+13
4.473857e+03, 3.162549e+13
4.478331e+03, 3.207898e+13
4.482810e+03, 2.686267e+13
4.487292e+03, 3.281101e+13
4.491780e+03, 2.970514e+13
4.496272e+03, 2.655489e+13
4.500768e+03, 3.339146e+13
4.505269e+03, 3.529825e+13
4.509774e+03, 3.349391e+13
4.514284e+03, 3.024820e+13
4.518798e+03, 3.185131e+13
4.523317e+03, 3.246743e+13
4.527840e+03, 2.422813e+13
4.532368e+03, 2.520513e+13
4.536900e+03, 2.113457e+13
4.541437e+03, 3.241106e+13
4.545979e+03, 3.000808e+13
4.550525e+03, 3.073205e+13
4.555075e+03, 2.727770e+13
4.559630e+03, 3.551420e+13
4.564190e+03, 3.634489e+13
4.568754e+03, 3.650968e+13
4.573323e+03, 3.290794e+13
4.577896e+03, 3.312044e+13
4.582474e+03, 2.869215e+13
4.587056e+03, 2.739750e+13
4.591643e+03, 3.095629e+13
4.596235e+03, 2.901211e+13
4.600831e+03, 3.069947e+13
4.605432e+03, 3.157597e+13
4.610038e+03, 3.271436e+13
4.614648e+03, 3.444804e+13
4.619262e+03, 3.127975e+13
4.623882e+03, 3.409421e+13
4.628505e+03, 2.956603e+13
4.633134e+03, 3.151899e+13
4.637767e+03, 3.102084e+13
4.642405e+03, 3.145616e+13
4.647047e+03, 2.834409e+13
4.651694e+03, 2.746333e+13
4.656346e+03, 3.019035e+13
4.661002e+03, 3.764626e+13
4.665663e+03, 3.454869e+13
4.670329e+03, 2.785387e+13
4.674999e+03, 3.138434e+13
4.679674e+03, 3.304928e+13
4.684354e+03, 2.807247e+13
4.689038e+03, 3.223014e+13
4.693727e+03, 3.281049e+13
4.698421e+03, 3.251180e+13
4.703120e+03, 3.266680e+13
4.707823e+03, 3.407115e+13
4.712530e+03, 3.066725e+13
4.717243e+03, 2.771266e+13
4.721960e+03, 3.004297e+13
4.726682e+03, 3.179684e+13
4.731409e+03, 3.017526e+13
4.736140e+03, 3.049927e+13
4.740876e+03, 3.057106e+13
4.745617e+03, 3.010257e+13
4.750363e+03, 3.308528e+13
4.755113e+03, 2.912619e+13
4.759868e+03, 2.645336e+13
4.764628e+03, 2.210597e+13
4.769393e+03, 2.173150e+13
4.774162e+03, 2.317197e+13
4.778936e+03, 2.348198e+13
4.783715e+03, 2.478671e+13
4.788499e+03, 2.365169e+13
4.793288e+03, 2.695889e+13
4.798081e+03, 3.079279e+13
4.802879e+03, 2.962012e+13
4.807682e+03, 2.727510e+13
4.812490e+03, 2.712726e+13
4.817302e+03, 2.882040e+13
4.822119e+03, 3.020519e+13
4.826941e+03, 2.840860e+13
4.831768e+03, 2.900257e+13
4.836600e+03, 3.216495e+13
4.841437e+03, 2.997734e+13
4.846278e+03, 3.359077e+13
4.851124e+03, 3.257896e+13
4.855976e+03, 3.400265e+13
4.860832e+03, 3.493840e+13
4.865692e+03, 3.563315e+13
4.870558e+03, 3.358739e+13
4.875429e+03, 3.339662e+13
4.880304e+03, 3.460391e+13
4.885184e+03, 3.541998e+13
4.890070e+03, 3.424378e+13
4.894960e+03, 3.674504e+13
4.899855e+03, 3.747890e+13
4.904754e+03, 3.670782e+13
4.909659e+03, 3.718783e+13
4.914569e+03, 3.787504e+13
4.919483e+03, 3.550975e+13
4.924403e+03, 3.723704e+13
4.929327e+03, 3.762688e+13
4.934257e+03, 4.018018e+13
4.939191e+03, 3.732479e+13
4.944130e+03, 3.856068e+13
4.949074e+03, 3.733301e+13
4.954023e+03, 3.924772e+13
4.958977e+03, 2.248377e+13
4.963936e+03, 2.436813e+13
4.968900e+03, 2.582391e+13
4.973869e+03, 2.755567e+13
4.978843e+03, 2.764182e+13
4.983822e+03, 2.532395e+13
4.988806e+03, 2.865579e+13
4.993794e+03, 2.707731e+13
4.998788e+03, 2.728518e+13
5.003787e+03, 2.386458e+13
5.008791e+03, 2.195065e+13
5.013800e+03, 2.372257e+13
5.018813e+03, 2.610658e+13
5.023832e+03, 2.316451e+13
5.028856e+03, 2.549926e+13
5.033885e+03, 3.151469e+13
5.038919e+03, 2.534893e+13
5.043958e+03, 2.329720e+13
5.049002e+03, 2.847242e+13
5.054051e+03, 2.869751e+13
5.059105e+03, 2.803041e+13
5.064164e+03, 2.527501e+13
5.069228e+03, 2.631121e+13
5.074297e+03, 2.911005e+13
5.079372e+03, 2.730850e+13
5.084451e+03, 2.775185e+13
5.089535e+03, 2.804846e+13
5.094625e+03, 2.848126e+13
5.099720e+03, 2.639467e+13
5.104819e+03, 2.938368e+13
5.109924e+03, 2.688470e+13
5.115034e+03, 3.290647e+13
5.120149e+03, 2.776408e+13
5.125269e+03, 2.742050e+13
5.130394e+03, 2.498200e+13
5.135525e+03, 3.384269e+13
5.140660e+03, 3.090283e+13
5.145801e+03, 2.641675e+13
5.150947e+03, 2.692644e+13
5.156098e+03, 2.509047e+13
5.161254e+03, 3.940741e+13
5.166415e+03, 2.976925e+13
5.171582e+03, 1.735993e+13
5.176753e+03, 2.018996e+13
5.181930e+03, 1.881881e+13
5.187112e+03, 2.470119e+13
5.192299e+03, 2.689364e+13
5.197491e+03, 3.085329e+13
5.202689e+03, 3.031052e+13
5.207891e+03, 1.683101e+13
5.213099e+03, 3.038666e+13
5.218312e+03, 4.095821e+13
5.223531e+03, 4.273012e+13
5.228754e+03, 3.630068e+13
5.233983e+03, 4.463530e+13
5.239217e+03, 4.704704e+13
5.244456e+03, 4.375505e+13
5.249701e+03, 3.915470e+13
5.254950e+03, 4.406582e+13
5.260205e+03, 4.677239e+13
5.265465e+03, 2.899816e+13
5.270731e+03, 2.900342e+13
5.276002e+03, 4.304665e+13
5.281278e+03, 4.813336e+13
5.286559e+03, 4.926299e+13
5.291846e+03, 5.215130e+13
5.297137e+03, 4.395076e+13
5.302435e+03, 4.656429e+13
5.307737e+03, 5.451866e+13
5.313045e+03, 5.154615e+13
5.318358e+03, 5.253197e+13
5.323676e+03, 4.799961e+13
5.329000e+03, 3.322058e+13
5.334329e+03, 4.896885e+13
5.339663e+03, 5.035004e+13
5.345003e+03, 4.470660e+13
5.350348e+03, 4.571056e+13
5.355698e+03, 5.524531e+13
5.361054e+03, 5.360886e+13
5.366415e+03, 4.862520e+13
5.371781e+03, 4.116984e+13
5.377153e+03, 5.262667e+13
5.382530e+03, 5.396980e+13
5.387913e+03, 5.427621e+13
5.393301e+03, 5.032323e+13
5.398694e+03, 4.335866e+13
5.404093e+03, 4.863595e+13
5.409497e+03, 3.972990e+13
5.414906e+03, 5.255181e+13
5.420321e+03, 5.494494e+13
5.425741e+03, 5.268366e+13
5.431167e+03, 4.651573e+13
5.436598e+03, 4.606154e+13
5.442035e+03, 5.572008e+13
5.447477e+03, 4.455999e+13
5.452924e+03, 4.040801e+13
5.458377e+03, 3.841316e+13
5.463836e+03, 4.323108e+13
5.469300e+03, 4.567699e+13
5.474769e+03, 4.549534e+13
5.480244e+03, 4.439190e+13
5.485724e+03, 4.801393e+13
5.491210e+03, 4.788848e+13
5.496701e+03, 4.580799e+13
5.502198e+03, 4.426698e+13
5.507700e+03, 4.475969e+13
5.513207e+03, 4.174689e+13
5.518721e+03, 4.718206e+13
5.524239e+03, 5.152900e+13
5.529764e+03, 5.023233e+13
5.535293e+03, 5.035943e+13
5.540829e+03, 5.329807e+13
5.546370e+03, 5.164420e+13
5.551916e+03, 5.415815e+13
5.557468e+03, 5.442148e+13
5.563025e+03, 5.389619e+13
5.568588e+03, 5.097651e+13
5.574157e+03, 5.285248e+13
5.579731e+03, 5.486093e+13
5.585311e+03, 5.068757e+13
5.590896e+03, 4.078572e+13
5.596487e+03, 4.556036e+13
5.602083e+03, 3.665882e+13
5.607686e+03, 4.896414e+13
5.613293e+03, 4.986237e+13
5.618907e+03, 4.512073e+13
5.624525e+03, 4.900932e+13
5.630150e+03, 4.903639e+13
5.635780e+03, 5.234702e+13
5.641416e+03, 5.119132e+13
5.647057e+03, 5.132197e+13
5.652704e+03, 5.528374e+13
5.658357e+03, 5.409923e+13
5.664015e+03, 5.015056e+13
5.669679e+03, 5.304426e+13
5.675349e+03, 5.345709e+13
5.681024e+03, 5.700241e+13
5.686705e+03, 5.333569e+13
5.692392e+03, 5.557784e+13
5.698085e+03, 5.610526e+13
5.703783e+03, 5.463277e+13
5.709486e+03, 5.490396e+13
5.715196e+03, 5.579317e+13
5.720911e+03, 6.024157e+13
5.726632e+03, 5.807768e+13
5.732359e+03, 6.048406e+13
5.738091e+03, 6.155592e+13
5.743829e+03, 6.173935e+13
5.749573e+03, 6.312107e+13
5.755323e+03, 6.287434e+13
5.761078e+03, 5.908105e+13
5.766839e+03, 5.806830e+13
5.772606e+03, 6.010813e+13
5.778378e+03, 6.010023e+13
5.784157e+03, 5.806781e+13
5.789941e+03, 5.888926e+13
5.795731e+03, 6.318769e+13
5.801527e+03, 6.307048e+13
5.807328e+03, 6.317178e+13
5.813135e+03, 5.946547e+13
5.818949e+03, 6.013574e+13
5.824768e+03, 6.172807e+13
5.830592e+03, 6.195010e+13
5.836423e+03, 6.192106e+13
5.842259e+03, 6.129620e+13
5.848102e+03, 6.045375e+13
5.853950e+03, 5.638104e+13
5.859804e+03, 5.107703e+13
5.865663e+03, 5.275831e+13
5.871529e+03, 5.257726e+13
5.877401e+03, 4.794091e+13
5.883278e+03, 4.072867e+13
5.889161e+03, 2.356136e+13
5.895050e+03, 2.023695e+13
5.900945e+03, 2.953753e+13
5.906846e+03, 4.278944e+13
5.912753e+03, 4.742995e+13
5.918666e+03, 4.889426e+13
5.924585e+03, 4.959126e+13
5.930509e+03, 5.147480e+13
5.936440e+03, 5.353354e+13
5.942376e+03, 5.354295e+13
5.948319e+03, 5.307466e+13
5.954267e+03, 5.295035e+13
5.960221e+03, 5.299479e+13
5.966181e+03, 5.437114e+13
5.972148e+03, 5.530251e+13
5.978120e+03, 5.439227e+13
5.984098e+03, 5.655148e+13
5.990082e+03, 5.863134e+13
5.996072e+03, 5.849975e+13
6.002068e+03, 5.824824e+13
6.008070e+03, 5.771115e+13
6.014078e+03, 5.992932e+13
6.020092e+03, 5.938718e+13
6.026112e+03, 6.041654e+13
6.032139e+03, 6.354312e+13
6.038171e+03, 6.473273e+13
6.044209e+03, 6.356044e+13
6.050253e+03, 6.593447e+13
6.056303e+03, 6.542583e+13
6.062360e+03, 6.541725e+13
6.068422e+03, 6.468746e+13
6.074490e+03, 6.895645e+13
6.080565e+03, 6.815510e+13
6.086645e+03, 6.823551e+13
6.092732e+03, 6.630106e+13
6.098825e+03, 6.797557e+13
6.104924e+03, 5.746982e+13
6.111029e+03, 6.614017e+13
6.117140e+03, 6.938871e+13
6.123257e+03, 5.264015e+13
6.129380e+03, 6.638006e+13
6.135509e+03, 6.701829e+13
6.141645e+03, 6.620177e+13
6.147787e+03, 6.989692e+13
6.153934e+03, 6.501952e+13
6.160088e+03, 5.440048e+13
6.166248e+03, 4.164814e+13
6.172415e+03, 4.897106e+13
6.178587e+03, 5.663699e+13
6.184766e+03, 5.762308e+13
6.190950e+03, 5.025007e+13
6.197141e+03, 5.340005e+13
6.203338e+03, 5.374369e+13
6.209542e+03, 5.587512e+13
6.215751e+03, 4.765128e+13
6.221967e+03, 4.882166e+13
6.228189e+03, 4.556721e+13
6.234417e+03, 4.755972e+13
6.240652e+03, 4.786725e+13
6.246892e+03, 4.827427e+13
6.253139e+03, 5.071809e+13
6.259392e+03, 4.819489e+13
6.265652e+03, 5.233374e+13
6.271917e+03, 5.499855e+13
6.278189e+03, 5.365792e+13
6.284467e+03, 5.469570e+13
6.290752e+03, 5.577164e+13
6.297043e+03, 5.397453e+13
6.303340e+03, 5.699332e+13
6.309643e+03, 5.619292e+13
6.315953e+03, 5.941803e+13
6.322269e+03, 5.706106e+13
6.328591e+03, 6.002427e+13
6.334920e+03, 5.952000e+13
6.341254e+03, 6.270345e+13
6.347596e+03, 6.432433e+13
6.353943e+03, 6.315856e+13
6.360297e+03, 5.752764e+13
6.366658e+03, 5.669646e+13
6.373024e+03, 5.755525e+13
6.379397e+03, 5.352536e+13
6.385777e+03, 5.203199e+13
6.392162e+03, 5.015962e+13
6.398555e+03, 5.560211e+13
6.404953e+03, 5.758851e+13
6.411358e+03, 6.114135e+13
6.417769e+03, 6.095656e+13
6.424187e+03, 6.058681e+13
6.430611e+03, 6.067392e+13
6.437042e+03, 6.059468e+13
6.443479e+03, 5.655564e+13
6.449923e+03, 6.135952e+13
6.456372e+03, 6.403296e+13
6.462829e+03, 5.443908e+13
6.469292e+03, 6.793412e+13
6.475761e+03, 6.649944e+13
6.482237e+03, 6.906464e+13
6.488719e+03, 6.746911e+13
6.495208e+03, 5.622295e+13
6.501703e+03, 6.259690e+13
6.508205e+03, 7.035316e+13
6.514713e+03, 7.154508e+13
6.521227e+03, 7.180882e+13
6.527749e+03, 7.319990e+13
6.534276e+03, 7.341486e+13
6.540811e+03, 7.505321e+13
6.547352e+03, 7.070041e+13
6.553899e+03, 7.051610e+13
6.560453e+03, 7.123347e+13
6.567013e+03, 7.176625e+13
6.573580e+03, 6.754033e+13
6.580154e+03, 7.110746e+13
6.586734e+03, 7.258835e+13
6.593321e+03, 7.047950e+13
6.599914e+03, 7.321092e+13
6.606514e+03, 7.333950e+13
6.613120e+03, 7.133171e+13
6.619734e+03, 7.142860e+13
6.626353e+03, 7.117257e+13
6.632980e+03, 7.084938e+13
6.639613e+03, 7.194304e+13
6.646252e+03, 7.125557e+13
6.652899e+03, 6.558241e+13
6.659551e+03, 6.480678e+13
6.666211e+03, 6.439501e+13
6.672877e+03, 6.776935e+13
6.679550e+03, 6.365989e+13
6.686230e+03, 5.820343e+13
6.692916e+03, 6.119533e+13
6.699609e+03, 6.224131e+13
6.706308e+03, 5.935167e+13
6.713015e+03, 5.799798e+13
6.719728e+03, 5.096317e+13
6.726447e+03, 5.287372e+13
6.733174e+03, 5.467441e+13
6.739907e+03, 5.494958e+13
6.746647e+03, 5.350451e+13
6.753394e+03, 5.129685e+13
6.760147e+03, 5.359514e+13
6.766907e+03, 5.482446e+13
6.773674e+03, 5.688772e+13
6.780448e+03, 5.446205e+13
6.787228e+03, 5.062594e+13
6.794015e+03, 5.122335e+13
6.800809e+03, 5.200100e+13
6.807610e+03, 5.361800e+13
6.814418e+03, 5.340359e+13
6.821232e+03, 5.229882e+13
6.828053e+03, 5.209432e+13
6.834882e+03, 5.212995e+13
6.841716e+03, 5.082769e+13
6.848558e+03, 5.157246e+13
6.855407e+03, 4.866171e+13
6.862262e+03, 4.652032e+13
6.869124e+03, 5.000476e+13
6.875994e+03, 5.163625e+13
6.882869e+03, 5.112026e+13
6.889752e+03, 5.007666e+13
6.896642e+03, 5.349184e+13
6.903539e+03, 5.257599e+13
6.910442e+03, 5.707235e+13
6.917353e+03, 5.476926e+13
6.924270e+03, 5.904238e+13
6.931194e+03, 6.147005e+13
6.938126e+03, 6.132906e+13
6.945064e+03, 6.362683e+13
6.952009e+03, 6.560214e+13
6.958961e+03, 6.520946e+13
6.965920e+03, 6.617357e+13
6.972886e+03, 6.617080e+13
6.979859e+03, 6.379476e+13
6.986838e+03, 6.899427e+13
6.993825e+03, 6.506716e+13
7.000819e+03, 6.764477e+13
7.007820e+03, 6.859018e+13
7.014828e+03, 6.954685e+13
7.021843e+03, 7.022064e+13
7.028864e+03, 7.614885e+13
7.035893e+03, 7.225496e+13
7.042929e+03, 8.171956e+13
7.049972e+03, 8.498299e+13
7.057022e+03, 7.008028e+13
7.064079e+03, 6.471186e+13
7.071143e+03, 6.961861e+13
7.078214e+03, 7.147868e+13
7.085292e+03, 7.165000e+13
7.092378e+03, 5.646152e+13
7.099470e+03, 5.941424e+13
7.106570e+03, 6.280754e+13
7.113676e+03, 6.393571e+13
7.120790e+03, 6.795932e+13
7.127911e+03, 5.516716e+13
7.135039e+03, 5.172549e+13
7.142174e+03, 5.361300e+13
7.149316e+03, 5.064655e+13
7.156465e+03, 5.993007e+13
7.163622e+03, 5.719775e+13
7.170785e+03, 6.047174e+13
7.177956e+03, 6.310899e+13
7.185134e+03, 6.488246e+13
7.192319e+03, 6.478956e+13
7.199511e+03, 6.389695e+13
7.206711e+03, 6.057219e+13
7.213918e+03, 6.337224e+13
7.221132e+03, 6.711681e+13
7.228353e+03, 6.903076e+13
7.235581e+03, 7.027798e+13
7.242817e+03, 7.114586e+13
7.250059e+03, 7.235377e+13
7.257309e+03, 7.412763e+13
7.264567e+03, 7.640642e+13
7.271831e+03, 7.564650e+13
7.279103e+03, 7.744254e+13
7.286382e+03, 7.865342e+13
7.293669e+03, 7.860934e+13
7.300962e+03, 8.101286e+13
7.308263e+03, 8.081981e+13
7.315572e+03, 8.194163e+13
7.322887e+03, 8.240262e+13
7.330210e+03, 7.691011e+13
7.337540e+03, 8.418566e+13
7.344878e+03, 8.342159e+13
7.352223e+03, 8.423602e+13
7.359575e+03, 8.214304e+13
7.366934e+03, 8.372348e+13
7.374301e+03, 8.712634e+13
7.381676e+03, 8.702471e+13
7.389057e+03, 8.586391e+13
7.396446e+03, 8.739592e+13
7.403843e+03, 8.568412e+13
7.411247e+03, 8.741036e+13
7.418658e+03, 8.700540e+13
7.426077e+03, 8.628556e+13
7.433503e+03, 8.812148e+13
7.440936e+03, 8.832767e+13
7.448377e+03, 8.685095e+13
7.455825e+03, 8.909269e+13
7.463281e+03, 8.642880e+13
7.470745e+03, 8.931480e+13
7.478215e+03, 8.989487e+13
7.485694e+03, 8.930842e+13
7.493179e+03, 8.798469e+13
7.500672e+03, 8.821001e+13
7.508173e+03, 8.918964e+13
7.515681e+03, 8.854446e+13
7.523197e+03, 9.003072e+13
7.530720e+03, 8.907773e+13
7.538251e+03, 9.028769e+13
7.545789e+03, 9.061782e+13
7.553335e+03, 9.038236e+13
7.560888e+03, 9.053309e+13
7.568449e+03, 9.003186e+13
7.576018e+03, 8.972352e+13
7.583594e+03, 9.005975e+13
7.591177e+03, 8.596368e+13
7.598768e+03, 8.710425e+13
7.606367e+03, 8.655928e+13
7.613973e+03, 8.577678e+13
7.621587e+03, 8.721495e+13
7.629209e+03, 8.511785e+13
7.636838e+03, 8.438430e+13
7.644475e+03, 8.457959e+13
7.652120e+03, 8.442947e+13
7.659772e+03, 8.329321e+13
7.667431e+03, 6.790113e+13
7.675099e+03, 7.838818e+13
7.682774e+03, 7.865286e+13
7.690457e+03, 7.977488e+13
7.698147e+03, 7.227702e+13
7.705845e+03, 7.860165e+13
7.713551e+03, 7.891381e+13
7.721265e+03, 8.041681e+13
7.728986e+03, 8.122566e+13
7.736715e+03, 8.311329e+13
7.744452e+03, 8.155066e+13
7.752196e+03, 7.692411e+13
7.759948e+03, 8.026308e+13
7.767708e+03, 7.975516e+13
7.775476e+03, 8.152935e+13
7.783252e+03, 7.966066e+13
7.791035e+03, 7.964100e+13
7.798826e+03, 8.054706e+13
7.806625e+03, 8.290343e+13
7.814431e+03, 8.363914e+13
7.822246e+03, 8.267638e+13
7.830068e+03, 8.143165e+13
7.837898e+03, 7.983149e+13
7.845736e+03, 7.995206e+13
7.853582e+03, 8.252451e+13
7.861435e+03, 8.359298e+13
7.869297e+03, 8.358173e+13
7.877166e+03, 8.449722e+13
7.885043e+03, 8.491474e+13
7.892928e+03, 8.469006e+13
7.900821e+03, 8.581016e+13
7.908722e+03, 8.464159e+13
7.916631e+03, 8.405088e+13
7.924547e+03, 8.527008e+13
7.932472e+03, 8.610190e+13
7.940404e+03, 8.449000e+13
7.948345e+03, 8.387164e+13
7.956293e+03, 8.700496e+13
7.964249e+03, 8.732777e+13
7.972214e+03, 8.821525e+13
7.980186e+03, 8.691232e+13
7.988166e+03, 8.749164e+13
7.996154e+03, 8.763730e+13
8.004150e+03, 8.688402e+13
8.012154e+03, 8.863167e+13
8.020167e+03, 8.897923e+13
8.028187e+03, 8.733436e+13
8.036215e+03, 8.916877e+13
8.044251e+03, 8.872160e+13
8.052295e+03, 8.790477e+13
8.060348e+03, 8.948247e+13
8.068408e+03, 8.764299e+13
8.076476e+03, 8.826424e+13
8.084553e+03, 8.880655e+13
8.092637e+03, 8.942393e+13
8.100730e+03, 9.012812e+13
8.108831e+03, 9.034464e+13
8.116940e+03, 8.823481e+13
8.125057e+03, 8.922743e+13
8.133182e+03, 9.034655e+13
8.141315e+03, 9.069590e+13
8.149456e+03, 9.083315e+13
8.157606e+03, 9.099172e+13
8.165763e+03, 8.964588e+13
8.173929e+03, 9.038334e+13
8.182103e+03, 8.148399e+13
8.190285e+03, 8.635319e+13
8.198475e+03, 7.504010e+13
8.206674e+03, 8.724203e+13
8.214880e+03, 8.869637e+13
8.223095e+03, 8.779203e+13
8.231318e+03, 8.958714e+13
8.239550e+03, 8.953209e+13
8.247789e+03, 8.958621e+13
8.256037e+03, 8.885336e+13
8.264293e+03, 9.006305e+13
8.272557e+03, 8.902368e+13
8.280830e+03, 8.895313e+13
8.289111e+03, 8.858955e+13
8.297400e+03, 8.821611e+13
8.305697e+03, 8.742497e+13
8.314003e+03, 8.818387e+13
8.322317e+03, 8.842720e+13
8.330639e+03, 8.393600e+13
8.338970e+03, 8.709069e+13
8.347309e+03, 8.738463e+13
8.355656e+03, 8.745537e+13
8.364012e+03, 8.539378e+13
8.372376e+03, 8.823748e+13
8.380748e+03, 8.444873e+13
8.389129e+03, 8.084868e+13
8.397518e+03, 8.634079e+13
8.405916e+03, 8.782684e+13
8.414322e+03, 8.592215e+13
8.422736e+03, 8.645035e+13
8.431159e+03, 8.444358e+13
8.439590e+03, 7.839811e+13
8.448029e+03, 8.449367e+13
8.456477e+03, 8.183250e+13
8.464934e+03, 8.338183e+13
8.473399e+03, 8.026506e+13
8.481872e+03, 8.373996e+13
8.490354e+03, 8.429905e+13
8.498845e+03, 7.799171e+13
8.507343e+03, 8.357800e+13
8.515851e+03, 8.122936e+13
8.524367e+03, 8.266140e+13
8.532891e+03, 8.330597e+13
8.541424e+03, 7.241662e+13
8.549965e+03, 8.060128e+13
8.558515e+03, 8.474050e+13
8.567074e+03, 8.521754e+13
8.575641e+03, 8.509746e+13
8.584216e+03, 8.474674e+13
8.592801e+03, 8.567264e+13
8.601393e+03, 8.556236e+13
8.609995e+03, 8.494580e+13
8.618605e+03, 8.580247e+13
8.627223e+03, 8.601857e+13
8.635851e+03, 8.633558e+13
8.644486e+03, 8.658976e+13
8.653131e+03, 8.609537e+13
8.661784e+03, 7.520740e+13
8.670446e+03, 8.477683e+13
8.679116e+03, 8.376644e+13
8.687795e+03, 8.023682e+13
8.696483e+03, 8.408231e+13
8.705180e+03, 8.522818e+13
8.713885e+03, 8.441573e+13
8.722599e+03, 8.509475e+13
8.731321e+03, 8.631691e+13
8.740053e+03, 8.445379e+13
8.748793e+03, 8.620319e+13
8.757542e+03, 8.517968e+13
8.766299e+03, 8.507589e+13
8.775065e+03, 8.543718e+13
8.783840e+03, 8.627163e+13
8.792624e+03, 8.643338e+13
8.801417e+03, 8.570163e+13
8.810218e+03, 8.084466e+13
8.819029e+03, 8.754687e+13
8.827848e+03, 8.222473e+13
8.836675e+03, 8.660198e+13
8.845512e+03, 8.671692e+13
8.854358e+03, 8.751651e+13
8.863212e+03, 8.303658e+13
8.872075e+03, 8.140209e+13
8.880947e+03, 8.288812e+13
8.889828e+03, 8.294800e+13
8.898718e+03, 8.319416e+13
8.907617e+03, 8.437205e+13
8.916524e+03, 8.419498e+13
8.925441e+03, 8.363990e+13
8.934366e+03, 8.370356e+13
8.943301e+03, 8.314431e+13
8.952244e+03, 8.303875e+13
8.961196e+03, 8.400700e+13
8.970157e+03, 8.374201e+13
8.979128e+03, 8.298006e+13
8.988107e+03, 8.434275e+13
8.997095e+03, 8.476149e+13
9.006092e+03, 8.287899e+13
9.015098e+03, 8.123988e+13
9.024113e+03, 8.236344e+13
9.033137e+03, 8.330287e+13
9.042170e+03, 8.435543e+13
9.051213e+03, 8.436253e+13
9.060264e+03, 8.350634e+13
9.069324e+03, 8.426782e+13
9.078393e+03, 8.452546e+13
9.087472e+03, 8.134476e+13
9.096559e+03, 8.391840e+13
9.105656e+03, 8.404690e+13
9.114761e+03, 8.533220e+13
9.123876e+03, 8.414134e+13
9.133000e+03, 8.523462e+13
9.142133e+03, 8.478937e+13
9.151275e+03, 8.419719e+13
9.160426e+03, 8.542534e+13
9.169587e+03, 8.526990e+13
9.178757e+03, 8.413552e+13
9.187935e+03, 8.579734e+13
9.197123e+03, 8.561183e+13
9.206320e+03, 8.450600e+13
9.215527e+03, 8.442138e+13
9.224742e+03, 8.390306e+13
9.233967e+03, 8.321026e+13
9.243201e+03, 8.474008e+13
9.252444e+03, 8.327868e+13
9.261697e+03, 8.303062e+13
9.270958e+03, 8.406449e+13
9.280229e+03, 8.343035e+13
9.289509e+03, 8.327431e+13
9.298799e+03, 8.272234e+13
9.308098e+03, 8.343910e+13
9.317406e+03, 8.335313e+13
9.326723e+03, 8.274844e+13
9.336050e+03, 8.345110e+13
9.345386e+03, 8.339358e+13
9.354731e+03, 8.256634e+13
9.364086e+03, 8.152629e+13
9.373450e+03, 8.239234e+13
9.382824e+03, 8.275926e+13
9.392206e+03, 8.258794e+13
9.401599e+03, 8.207118e+13
9.411000e+03, 8.297446e+13
9.420411e+03, 8.179804e+13
9.429832e+03, 8.323194e+13
9.439262e+03, 8.258851e+13
9.448701e+03, 8.159289e+13
9.458149e+03, 8.289100e+13
9.467608e+03, 8.216801e+13
9.477075e+03, 8.335329e+13
9.486552e+03, 8.278339e+13
9.496039e+03, 8.266941e+13
9.505535e+03, 8.272199e+13
9.515040e+03, 8.229873e+13
9.524555e+03, 8.322586e+13
9.534080e+03, 8.278051e+13
9.543614e+03, 8.247966e+13
9.553158e+03, 8.103762e+13
9.562711e+03, 8.240080e+13
9.572274e+03, 8.217966e+13
9.581846e+03, 8.297957e+13
9.591428e+03, 8.299976e+13
9.601019e+03, 8.002036e+13
9.610620e+03, 8.257636e+13
9.620231e+03, 8.284793e+13
9.629851e+03, 8.256513e+13
9.639481e+03, 7.788085e+13
9.649120e+03, 8.021934e+13
9.658769e+03, 8.083822e+13
9.668428e+03, 8.123991e+13
9.678097e+03, 7.845320e+13
9.687775e+03, 8.004224e+13
9.697463e+03, 8.196514e+13
9.707160e+03, 7.839739e+13
9.716867e+03, 8.087072e+13
9.726584e+03, 7.901526e+13
9.736311e+03, 8.062768e+13
9.746047e+03, 7.850812e+13
9.755793e+03, 8.143659e+13
9.765549e+03, 8.170286e+13
9.775314e+03, 7.923751e+13
9.785090e+03, 7.771566e+13
9.794875e+03, 7.914316e+13
9.804670e+03, 8.136272e+13
9.814474e+03, 8.101268e+13
9.824289e+03, 8.084750e+13
9.834113e+03, 7.998632e+13
9.843947e+03, 8.076368e+13
9.853791e+03, 8.107080e+13
9.863645e+03, 8.050322e+13
9.873509e+03, 8.058046e+13
9.883382e+03, 8.120847e+13
9.893265e+03, 8.086090e+13
9.903159e+03, 7.612478e+13
9.913062e+03, 7.291674e+13
9.922975e+03, 7.393901e+13
9.932898e+03, 7.439211e+13
9.942831e+03, 7.775582e+13
9.952774e+03, 7.769258e+13
9.962726e+03, 7.716452e+13
9.972689e+03, 7.651263e+13
9.982662e+03, 7.683260e+13
9.992644e+03, 7.646829e+13
1.000264e+04, 7.624863e+13
1.001264e+04, 7.629043e+13
1.002265e+04, 7.753994e+13
1.003268e+04, 7.700598e+13
1.004271e+04, 7.724224e+13
1.005275e+04, 7.496804e+13
1.006280e+04, 7.380122e+13
1.007287e+04, 7.727100e+13
1.008294e+04, 7.777676e+13
1.009302e+04, 7.673896e+13
1.010311e+04, 7.808496e+13
1.011322e+04, 7.683662e+13
1.012333e+04, 7.668582e+13
1.013345e+04, 7.729961e+13
1.014359e+04, 7.613402e+13
1.015373e+04, 7.598463e+13
1.016389e+04, 7.590410e+13
1.017405e+04, 7.714215e+13
1.018422e+04, 7.555643e+13
1.019441e+04, 7.663834e+13
1.020460e+04, 7.696328e+13
1.021481e+04, 7.633851e+13
1.022502e+04, 7.539124e+13
1.023525e+04, 7.725335e+13
1.024548e+04, 7.760522e+13
1.025573e+04, 7.470470e+13
1.026598e+04, 7.319960e+13
1.027625e+04, 7.393975e+13
1.028652e+04, 7.378515e+13
1.029681e+04, 7.464244e+13
1.030711e+04, 7.507172e+13
1.031742e+04, 7.556033e+13
1.032773e+04, 7.484419e+13
1.033806e+04, 7.436182e+13
1.034840e+04, 6.936625e+13
1.035875e+04, 7.592245e+13
1.036911e+04, 7.552510e+13
1.037947e+04, 7.473816e+13
1.038985e+04, 7.570986e+13
1.040024e+04, 7.278077e+13
1.041064e+04, 7.589568e+13
1.042106e+04, 7.448145e+13
1.043148e+04, 7.364084e+13
1.044191e+04, 7.566196e+13
1.045235e+04, 7.555935e+13
1.046280e+04, 7.566234e+13
1.047326e+04, 7.350269e+13
1.048374e+04, 7.465724e+13
1.049422e+04, 7.396291e+13
1.050472e+04, 7.569233e+13
1.051522e+04, 7.383675e+13
1.052574e+04, 7.383900e+13
1.053626e+04, 7.546869e+13
1.054680e+04, 7.461354e+13
1.055734e+04, 7.389975e+13
1.056790e+04, 7.466857e+13
1.057847e+04, 7.451796e+13
1.058905e+04, 7.303190e+13
1.059964e+04, 7.504583e+13
1.061024e+04, 7.313535e+13
1.062085e+04, 7.446042e+13
1.063147e+04, 7.480247e+13
1.064210e+04, 7.432089e+13
1.065274e+04, 7.361766e+13
1.066339e+04, 7.228828e+13
1.067406e+04, 7.306804e+13
1.068473e+04, 7.276675e+13
1.069542e+04, 7.359405e+13
1.070611e+04, 7.290226e+13
1.071682e+04, 7.378550e+13
1.072753e+04, 7.217599e+13
1.073826e+04, 7.272220e+13
1.074900e+04, 7.280580e+13
1.075975e+04, 7.336794e+13
1.077051e+04, 7.345262e+13
1.078128e+04, 7.313271e+13
1.079206e+04, 7.268066e+13
1.080285e+04, 7.266780e+13
1.081366e+04, 7.141226e+13
1.082447e+04, 7.275732e+13
1.083529e+04, 7.178684e+13
1.084613e+04, 7.252688e+13
1.085698e+04, 7.232469e+13
1.086783e+04, 7.203707e+13
1.087870e+04, 7.317772e+13
1.088958e+04, 7.197562e+13
1.090047e+04, 7.320756e+13
1.091137e+04, 7.188768e+13
1.092228e+04, 7.186848e+13
1.093320e+04, 7.256877e+13
1.094414e+04, 7.319733e+13
1.095508e+04, 7.199435e+13
1.096604e+04, 7.175111e+13
1.097700e+04, 7.134610e+13
1.098798e+04, 7.174844e+13
1.099897e+04, 7.217327e+13
1.100997e+04, 7.228467e+13
1.102098e+04, 7.059186e+13
1.103200e+04, 7.163798e+13
1.104303e+04, 7.149877e+13
1.105407e+04, 7.097185e+13
1.106513e+04, 7.123966e+13
1.107619e+04, 7.169735e+13
1.108727e+04, 7.123948e+13
1.109835e+04, 7.105159e+13
1.110945e+04, 7.128498e+13
1.112056e+04, 6.997832e+13
1.113168e+04, 7.109489e+13
1.114281e+04, 7.144558e+13
1.115396e+04, 7.051363e+13
1.116511e+04, 7.062812e+13
1.117628e+04, 7.076491e+13
1.118745e+04, 7.102948e+13
1.119864e+04, 7.025434e+13
1.120984e+04, 7.037884e+13
1.122105e+04, 7.029732e+13
1.123227e+04, 7.080821e+13
1.124350e+04, 7.046177e+13
1.125474e+04, 6.647966e+13
1.126600e+04, 7.066419e+13
1.127727e+04, 6.965393e+13
1.128854e+04, 6.997673e+13
1.129983e+04, 6.908212e+13
1.131113e+04, 7.008028e+13
1.132244e+04, 7.020195e+13
1.133376e+04, 6.986968e+13
1.134510e+04, 6.968358e+13
1.135644e+04, 6.933783e+13
1.136780e+04, 6.955564e+13
1.137917e+04, 6.552765e+13
1.139055e+04, 6.760160e+13
1.140194e+04, 6.450508e+13
1.141334e+04, 6.833841e+13
1.142475e+04, 6.826274e+13
1.143618e+04, 6.930456e+13
1.144761e+04, 6.809995e+13
1.145906e+04, 6.884208e+13
1.147052e+04, 6.859866e+13
1.148199e+04, 6.828309e+13
1.149347e+04, 6.857337e+13
1.150497e+04, 6.872308e+13
1.151647e+04, 6.903941e+13
1.152799e+04, 6.904614e+13
1.153952e+04, 6.859489e+13
1.155106e+04, 6.826738e+13
1.156261e+04, 6.837800e+13
1.157417e+04, 6.843105e+13
1.158574e+04, 6.846859e+13
1.159733e+04, 6.706214e+13
1.160893e+04, 6.478847e+13
1.162054e+04, 6.822404e+13
1.163216e+04, 6.794814e+13
1.164379e+04, 6.616195e+13
1.165543e+04, 6.767823e+13
1.166709e+04, 6.788994e+13
1.167875e+04, 6.763766e+13
1.169043e+04, 6.464323e+13
1.170212e+04, 6.764331e+13
1.171383e+04, 6.745634e+13
1.172554e+04, 6.765606e+13
1.173726e+04, 6.721247e+13
1.174900e+04, 6.724745e+13
1.176075e+04, 6.721293e+13
1.177251e+04, 6.330178e+13
1.178428e+04, 6.502111e+13
1.179607e+04, 6.598934e+13
1.180786e+04, 6.688823e+13
1.181967e+04, 6.684887e+13
1.183149e+04, 6.306217e+13
1.184332e+04, 6.659853e+13
1.185517e+04, 6.631802e+13
1.186702e+04, 6.650258e+13
1.187889e+04, 6.624631e+13
1.189077e+04, 6.116595e+13
1.190266e+04, 6.630156e+13
1.191456e+04, 6.582656e+13
1.192648e+04, 6.621016e+13
1.193840e+04, 6.562234e+13
1.195034e+04, 6.468084e+13
1.196229e+04, 6.454157e+13
1.197425e+04, 6.090067e+13
1.198623e+04, 6.451334e+13
1.199821e+04, 6.458276e+13
1.201021e+04, 6.494973e+13
1.202222e+04, 6.494043e+13
1.203424e+04, 6.403019e+13
1.204628e+04, 6.475065e+13
1.205833e+04, 6.507936e+13
1.207038e+04, 6.445814e+13
1.208245e+04, 6.347874e+13
1.209454e+04, 6.435198e+13
1.210663e+04, 6.389086e+13
1.211874e+04, 6.421532e+13
1.213086e+04, 6.440103e+13
1.214299e+04, 6.448985e+13
1.215513e+04, 6.448297e+13
1.216729e+04, 6.423283e+13
1.217945e+04, 6.438892e+13
1.219163e+04, 6.400646e+13
1.220382e+04, 6.365869e+13
1.221603e+04, 6.386090e+13
1.222824e+04, 6.387872e+13
1.224047e+04, 6.355895e+13
1.225271e+04, 6.382048e+13
1.226497e+04, 6.377588e+13
1.227723e+04, 6.337882e+13
1.228951e+04, 6.358659e+13
1.230180e+04, 6.335465e+13
1.231410e+04, 6.324867e+13
1.232641e+04, 6.285640e+13
1.233874e+04, 6.305340e+13
1.235108e+04, 6.310839e+13
1.236343e+04, 6.277937e+13
1.237579e+04, 6.304424e+13
1.238817e+04, 6.246881e+13
1.240056e+04, 6.257458e+13
1.241296e+04, 6.178267e+13
1.242537e+04, 6.140553e+13
1.243780e+04, 6.060160e+13
1.245023e+04, 6.216055e+13
1.246268e+04, 6.200697e+13
1.247515e+04, 6.162109e+13
1.248762e+04, 6.201115e+13
1.250011e+04, 6.160841e+13
1.251261e+04, 6.167432e+13
1.252512e+04, 5.946551e+13
1.253765e+04, 6.161291e+13
1.255018e+04, 6.129546e+13
1.256273e+04, 6.111335e+13
1.257530e+04, 6.123433e+13
1.258787e+04, 6.136559e+13
1.260046e+04, 6.089976e+13
1.261306e+04, 6.093669e+13
1.262567e+04, 6.107752e+13
1.263830e+04, 6.040801e+13
1.265094e+04, 6.094809e+13
1.266359e+04, 6.079723e+13
1.267625e+04, 5.982874e+13
1.268893e+04, 6.004616e+13
1.270162e+04, 6.055936e+13
1.271432e+04, 6.055790e+13
1.272703e+04, 6.083120e+13
1.273976e+04, 5.981648e+13
1.275250e+04, 5.992272e+13
1.276525e+04, 6.032516e+13
1.277802e+04, 6.008498e+13
1.279080e+04, 6.026991e+13
1.280359e+04, 6.007785e+13
1.281639e+04, 5.891828e+13
1.282921e+04, 5.731648e+13
1.284204e+04, 5.969818e+13
1.285488e+04, 5.880569e+13
1.286773e+04, 5.932313e+13
1.288060e+04, 5.880487e+13
1.289348e+04, 5.899151e+13
1.290637e+04, 5.687413e+13
1.291928e+04, 5.829594e+13
1.293220e+04, 5.858579e+13
1.294513e+04, 5.843773e+13
1.295808e+04, 5.910690e+13
1.297104e+04, 5.895600e+13
1.298401e+04, 5.830338e+13
1.299699e+04, 5.849466e+13
1.300999e+04, 5.798780e+13
1.302300e+04, 5.880127e+13
1.303602e+04, 5.776297e+13
1.304906e+04, 5.849240e+13
1.306211e+04, 5.824500e+13
1.307517e+04, 5.791200e+13
1.308824e+04, 5.794685e+13
1.310133e+04, 5.798765e+13
1.311443e+04, 5.784544e+13
1.312755e+04, 5.305587e+13
1.314067e+04, 5.645932e+13
1.315382e+04, 5.409493e+13
1.316697e+04, 5.773843e+13
1.318014e+04, 5.781796e+13
1.319332e+04, 5.789284e+13
1.320651e+04, 5.704094e+13
1.321972e+04, 5.708278e+13
1.323294e+04, 5.740237e+13
1.324617e+04, 5.728213e+13
1.325941e+04, 5.691027e+13
1.327267e+04, 5.666003e+13
1.328595e+04, 5.620828e+13
1.329923e+04, 5.573585e+13
1.331253e+04, 5.638676e+13
1.332584e+04, 5.476680e+13
1.333917e+04, 5.633962e+13
1.335251e+04, 5.496103e+13
1.336586e+04, 5.556902e+13
1.337923e+04, 5.513298e+13
1.339261e+04, 5.525562e+13
1.340600e+04, 5.543143e+13
1.341941e+04, 5.487952e+13
1.343283e+04, 5.501103e+13
1.344626e+04, 5.503735e+13
1.345970e+04, 5.520927e+13
1.347316e+04, 5.487521e+13
1.348664e+04, 5.503564e+13
1.350012e+04, 5.432033e+13
1.351362e+04, 5.489663e+13
1.352714e+04, 5.476356e+13
1.354066e+04, 5.458630e+13
1.355421e+04, 5.439213e+13
1.356776e+04, 5.454011e+13
1.358133e+04, 5.435898e+13
1.359491e+04, 5.426208e+13
1.360850e+04, 5.397220e+13
1.362211e+04, 5.402249e+13
1.363573e+04, 5.323365e+13
1.364937e+04, 5.356899e+13
1.366302e+04, 5.411243e+13
1.367668e+04, 5.405275e+13
1.369036e+04, 5.373615e+13
1.370405e+04, 5.408162e+13
1.371775e+04, 5.404185e+13
1.373147e+04, 5.388573e+13
1.374520e+04, 5.396888e+13
1.375895e+04, 5.381827e+13
1.377271e+04, 5.368587e+13
1.378648e+04, 5.343825e+13
1.380027e+04, 5.383511e+13
1.381407e+04, 5.376030e+13
1.382788e+04, 5.330209e+13
1.384171e+04, 5.345906e+13
1.385555e+04, 5.262542e+13
1.386941e+04, 5.256056e+13
1.388327e+04, 5.263222e+13
1.389716e+04, 5.271574e+13
1.391106e+04, 4.859651e+13
1.392497e+04, 4.985065e+13
1.393889e+04, 5.006999e+13
1.395283e+04, 5.091350e+13
1.396678e+04, 5.194748e+13
1.398075e+04, 5.035291e+13
1.399473e+04, 5.090866e+13
1.400873e+04, 5.088684e+13
1.402273e+04, 5.145911e+13
1.403676e+04, 5.185159e+13
1.405079e+04, 5.102977e+13
1.406484e+04, 5.112534e+13
1.407891e+04, 5.141705e+13
1.409299e+04, 5.093224e+13
1.410708e+04, 5.098627e+13
1.412119e+04, 5.087228e+13
1.413531e+04, 5.038888e+13
1.414944e+04, 5.133055e+13
1.416359e+04, 5.075239e+13
1.417776e+04, 5.075798e+13
1.419194e+04, 5.012819e+13
1.420613e+04, 5.107471e+13
1.422033e+04, 5.048727e+13
1.423455e+04, 5.006210e+13
1.424879e+04, 5.054086e+13
1.426304e+04, 4.982114e+13
1.427730e+04, 5.029462e+13
1.429158e+04, 4.956965e+13
1.430587e+04, 5.036235e+13
1.432018e+04, 5.048575e+13
1.433450e+04, 5.021538e+13
1.434883e+04, 4.928235e+13
1.436318e+04, 4.951486e+13
1.437754e+04, 4.990645e+13
1.439192e+04, 4.979192e+13
1.440631e+04, 4.894798e+13
1.442072e+04, 4.977136e+13
1.443514e+04, 4.998394e+13
1.444957e+04, 4.923635e+13
1.446402e+04, 4.928509e+13
1.447849e+04, 4.990156e+13
1.449297e+04, 4.955291e+13
1.450746e+04, 4.917161e+13
1.452197e+04, 4.851897e+13
1.453649e+04, 4.965649e+13
1.455102e+04, 4.949835e+13
1.456558e+04, 4.754983e+13
1.458014e+04, 4.949462e+13
1.459472e+04, 4.936692e+13
1.460932e+04, 4.516633e+13
1.462393e+04, 4.594786e+13
1.463855e+04, 4.762898e+13
1.465319e+04, 4.752569e+13
1.466784e+04, 4.723934e+13
1.468251e+04, 4.730713e+13
1.469719e+04, 4.662482e+13
1.471189e+04, 4.715849e+13
1.472660e+04, 4.841359e+13
1.474133e+04, 4.767006e+13
1.475607e+04, 4.725515e+13
1.477082e+04, 4.698629e+13
1.478560e+04, 4.732819e+13
1.480038e+04, 4.639467e+13
1.481518e+04, 4.773824e+13
1.483000e+04, 4.746174e+13
1.484483e+04, 4.801012e+13
1.485967e+04, 4.753858e+13
1.487453e+04, 4.570738e+13
1.488941e+04, 4.489512e+13
1.490429e+04, 4.656362e+13
1.491920e+04, 4.809549e+13
1.493412e+04, 4.754190e+13
1.494905e+04, 4.779017e+13
1.496400e+04, 4.767161e+13
1.497897e+04, 4.782261e+13
1.499394e+04, 4.769850e+13
1.500894e+04, 4.613909e+13
1.502395e+04, 4.275357e+13
1.503897e+04, 4.407728e+13
1.505401e+04, 4.404061e+13
1.506906e+04, 4.681941e+13
1.508413e+04, 4.663785e+13
1.509922e+04, 4.749759e+13
1.511432e+04, 4.706315e+13
1.512943e+04, 4.597332e+13
1.514456e+04, 4.594043e+13
1.515970e+04, 4.632270e+13
1.517486e+04, 4.583598e+13
1.519004e+04, 4.680260e+13
1.520523e+04, 4.677063e+13
1.522043e+04, 4.706099e+13
1.523566e+04, 4.677602e+13
1.525089e+04, 4.688932e+13
1.526614e+04, 4.539551e+13
1.528141e+04, 4.490407e+13
1.529669e+04, 4.616928e+13
1.531199e+04, 4.710726e+13
1.532730e+04, 4.565081e+13
1.534263e+04, 4.577003e+13
1.535797e+04, 4.701549e+13
1.537333e+04, 4.430508e+13
1.538870e+04, 4.419393e+13
1.540409e+04, 4.392683e+13
1.541949e+04, 4.436310e+13
1.543491e+04, 4.389590e+13
1.545035e+04, 4.674619e+13
1.546580e+04, 4.565917e+13
1.548126e+04, 4.587259e+13
1.549674e+04, 4.570253e+13
1.551224e+04, 4.457584e+13
1.552775e+04, 4.662904e+13
1.554328e+04, 4.328776e+13
1.555882e+04, 4.454863e+13
1.557438e+04, 4.414834e+13
1.558996e+04, 4.552175e+13
1.560555e+04, 4.524685e+13
1.562115e+04, 4.518210e+13
1.563677e+04, 4.445925e+13
1.565241e+04, 4.421781e+13
1.566806e+04, 4.581605e+13
1.568373e+04, 4.545065e+13
1.569941e+04, 4.493842e+13
1.571511e+04, 4.451662e+13
1.573083e+04, 4.349560e+13
1.574656e+04, 4.286704e+13
1.576231e+04, 4.236167e+13
1.577807e+04, 4.190929e+13
1.579385e+04, 4.556132e+13
1.580964e+04, 4.565085e+13
1.582545e+04, 4.403932e+13
1.584128e+04, 4.427608e+13
1.585712e+04, 4.559254e+13
1.587297e+04, 4.485281e+13
1.588885e+04, 4.210145e+13
1.590474e+04, 4.232107e+13
1.592064e+04, 4.353150e+13
1.593656e+04, 4.503962e+13
1.595250e+04, 4.541703e+13
1.596845e+04, 4.456196e+13
1.598442e+04, 4.465694e+13
1.600040e+04, 4.531087e+13
1.601640e+04, 4.445911e+13
1.603242e+04, 4.494651e+13
1.604845e+04, 4.313353e+13
1.606450e+04, 4.210469e+13
1.608057e+04, 4.282407e+13
1.609665e+04, 4.496987e+13
1.611274e+04, 4.450795e+13
1.612886e+04, 4.404057e+13
1.614498e+04, 4.380819e+13
1.616113e+04, 4.063928e+13
1.617729e+04, 4.442927e+13
1.619347e+04, 4.119878e+13
1.620966e+04, 4.081227e+13
1.622587e+04, 4.203186e+13
1.624210e+04, 4.244474e+13
1.625834e+04, 4.124546e+13
1.627460e+04, 4.365674e+13
1.629087e+04, 4.448096e+13
1.630716e+04, 4.361184e+13
1.632347e+04, 4.249784e+13
1.633979e+04, 4.356457e+13
1.635613e+04, 4.165243e+13
1.637249e+04, 4.223709e+13
1.638886e+04, 4.270547e+13
1.640525e+04, 4.243366e+13
1.642166e+04, 4.348762e+13
1.643808e+04, 4.309459e+13
1.645452e+04, 3.946566e+13
1.647097e+04, 4.240441e+13
1.648744e+04, 4.245129e+13
1.650393e+04, 4.315519e+13
1.652043e+04, 4.207471e+13
1.653695e+04, 4.062156e+13
1.655349e+04, 4.284968e+13
1.657004e+04, 4.274040e+13
1.658661e+04, 4.183091e+13
1.660320e+04, 4.223764e+13
1.661980e+04, 4.189229e+13
1.663642e+04, 4.201448e+13
1.665306e+04, 4.013264e+13
1.666971e+04, 4.136581e+13
1.668638e+04, 4.147867e+13
1.670307e+04, 4.117838e+13
1.671977e+04, 3.737397e+13
1.673649e+04, 4.036581e+13
1.675323e+04, 3.720668e+13
1.676998e+04, 3.978631e+13
1.678675e+04, 4.153566e+13
1.680354e+04, 4.142630e+13
1.682034e+04, 4.138764e+13
1.683716e+04, 4.102213e+13
1.685400e+04, 4.092406e+13
1.687085e+04, 3.923383e+13
1.688772e+04, 3.909524e+13
1.690461e+04, 3.754962e+13
1.692152e+04, 3.999145e+13
1.693844e+04, 4.022123e+13
1.695538e+04, 3.993159e+13
1.697233e+04, 3.990086e+13
1.698930e+04, 4.016208e+13
1.700629e+04, 3.918247e+13
1.702330e+04, 3.961788e+13
1.704032e+04, 3.979523e+13
1.705736e+04, 3.857123e+13
1.707442e+04, 3.784960e+13
1.709149e+04, 3.865624e+13
1.710859e+04, 3.316966e+13
1.712569e+04, 3.801701e+13
1.714282e+04, 3.882791e+13
1.715996e+04, 3.855256e+13
1.717712e+04, 3.766272e+13
1.719430e+04, 3.775484e+13
1.721149e+04, 3.756550e+13
1.722871e+04, 3.694849e+13
1.724593e+04, 3.656481e+13
1.726318e+04, 3.768692e+13
1.728044e+04, 3.759688e+13
1.729772e+04, 3.756283e+13
1.731502e+04, 3.570008e+13
1.733234e+04, 3.604411e+13
1.734967e+04, 3.543312e+13
1.736702e+04, 3.707802e+13
1.738439e+04, 3.626200e+13
1.740177e+04, 3.655125e+13
1.741917e+04, 3.554279e+13
1.743659e+04, 3.571840e+13
1.745403e+04, 3.642963e+13
1.747148e+04, 3.610460e+13
1.748895e+04, 3.625341e+13
1.750644e+04, 3.533921e+13
1.752395e+04, 3.547592e+13
1.754147e+04, 3.429064e+13
1.755901e+04, 3.449998e+13
1.757657e+04, 3.536939e+13
1.759415e+04, 3.426264e+13
1.761174e+04, 3.398356e+13
1.762936e+04, 3.408881e+13
1.764699e+04, 3.490131e+13
1.766463e+04, 3.436132e+13
1.768230e+04, 3.378093e+13
1.769998e+04, 3.451528e+13
1.771768e+04, 3.359082e+13
1.773540e+04, 3.416340e+13
1.775313e+04, 3.380828e+13
1.777089e+04, 3.249512e+13
1.778866e+04, 3.327442e+13
1.780644e+04, 3.362521e+13
1.782425e+04, 3.179271e+13
1.784208e+04, 3.291134e+13
1.785992e+04, 3.182152e+13
1.787778e+04, 3.266493e+13
1.789566e+04, 3.323591e+13
1.791355e+04, 3.247545e+13
1.793146e+04, 3.261346e+13
1.794940e+04, 3.232515e+13
1.796735e+04, 3.224130e+13
1.798531e+04, 3.236174e+13
1.800330e+04, 3.127913e+13
1.802130e+04, 3.081038e+13
1.803932e+04, 3.047344e+13
1.805736e+04, 3.118544e+13
1.807542e+04, 3.154000e+13
1.809349e+04, 3.172375e+13
1.811159e+04, 3.081136e+13
1.812970e+04, 3.097693e+13
1.814783e+04, 3.109067e+13
1.816598e+04, 3.140961e+13
1.818414e+04, 3.098822e+13
1.820233e+04, 3.025344e+13
1.822053e+04, 3.000031e+13
1.823875e+04, 3.159874e+13
1.825699e+04, 3.003217e+13
1.827525e+04, 2.943103e+13
1.829352e+04, 2.972990e+13
1.831181e+04, 3.036632e+13
1.833013e+04, 3.023540e+13
1.834846e+04, 3.009675e+13
1.836681e+04, 2.979685e+13
1.838517e+04, 2.991928e+13
1.840356e+04, 2.910751e+13
1.842196e+04, 2.885587e+13
1.844038e+04, 2.883121e+13
1.845882e+04, 2.863712e+13
1.847728e+04, 2.638953e+13
1.849576e+04, 2.877068e+13
1.851425e+04, 2.877627e+13
1.853277e+04, 2.814888e+13
1.855130e+04, 2.830242e+13
1.856985e+04, 2.756255e+13
1.858842e+04, 2.764435e+13
1.860701e+04, 2.796767e+13
1.862562e+04, 2.823934e+13
1.864424e+04, 2.810393e+13
1.866289e+04, 2.807752e+13
1.868155e+04, 2.835053e+13
1.870023e+04, 2.846466e+13
1.871893e+04, 2.768410e+13
1.873765e+04, 2.702811e+13
1.875639e+04, 2.803176e+13
1.877515e+04, 2.726720e+13
1.879392e+04, 2.749424e+13
1.881272e+04, 2.785783e+13
1.883153e+04, 2.827421e+13
1.885036e+04, 2.652468e+13
1.886921e+04, 2.701337e+13
1.888808e+04, 2.739412e+13
1.890697e+04, 2.725321e+13
1.892587e+04, 2.628631e+13
1.894480e+04, 2.720975e+13
1.896374e+04, 2.737146e+13
1.898271e+04, 2.637547e+13
1.900169e+04, 2.725280e+13
1.902069e+04, 2.698681e+13
1.903971e+04, 2.663024e+13
1.905875e+04, 2.561773e+13
1.907781e+04, 2.662270e+13
1.909689e+04, 2.632351e+13
1.911599e+04, 2.589065e+13
1.913510e+04, 2.696434e+13
1.915424e+04, 2.638980e+13
1.917339e+04, 2.635711e+13
1.919257e+04, 2.652028e+13
1.921176e+04, 2.638083e+13
1.923097e+04, 2.623640e+13
1.925020e+04, 2.615248e+13
1.926945e+04, 2.589079e+13
1.928872e+04, 2.552023e+13
1.930801e+04, 2.106243e+13
1.932732e+04, 2.368242e+13
1.934664e+04, 2.496705e+13
1.936599e+04, 2.567115e+13
1.938536e+04, 2.542001e+13
1.940474e+04, 2.499867e+13
1.942415e+04, 2.495296e+13
1.944357e+04, 2.285592e+13
1.946301e+04, 1.918946e+13
1.948248e+04, 2.373575e+13
1.950196e+04, 2.190289e+13
1.952146e+04, 2.250492e+13
1.954098e+04, 2.464562e+13
1.956052e+04, 2.463094e+13
1.958009e+04, 2.522935e+13
1.959967e+04, 2.472194e+13
1.961927e+04, 2.385807e+13
1.963888e+04, 2.384144e+13
1.965852e+04, 2.479766e+13
1.967818e+04, 2.467821e+13
1.969786e+04, 2.455046e+13
1.971756e+04, 2.416825e+13
1.973728e+04, 2.351249e+13
1.975701e+04, 2.235081e+13
1.977677e+04, 1.760000e+13
1.979655e+04, 2.066170e+13
1.981634e+04, 2.190691e+13
1.983616e+04, 2.327690e+13
1.985600e+04, 2.047987e+13
1.987585e+04, 2.040041e+13
1.989573e+04, 2.285129e+13
1.991562e+04, 2.190981e+13
1.993554e+04, 2.170667e+13
1.995547e+04, 2.282099e+13
1.997543e+04, 2.222517e+13
1.999541e+04, 2.312734e+13
2.001540e+04, 2.304257e+13
2.003542e+04, 2.308375e+13
2.005545e+04, 2.313364e+13
2.007551e+04, 2.324844e+13
2.009558e+04, 2.265303e+13
2.011568e+04, 2.264262e+13
2.013579e+04, 2.262391e+13
2.015593e+04, 2.268754e+13
2.017609e+04, 2.250137e+13
2.019626e+04, 2.197575e+13
2.021646e+04, 2.256056e+13
2.023667e+04, 2.246231e+13
2.025691e+04, 2.232723e+13
2.027717e+04, 2.191262e+13
2.029744e+04, 2.175030e+13
2.031774e+04, 2.220012e+13
2.033806e+04, 2.212496e+13
2.035840e+04, 2.188687e+13
2.037876e+04, 2.205730e+13
2.039914e+04, 2.189847e+13
2.041953e+04, 2.198595e+13
2.043995e+04, 2.167805e+13
2.046039e+04, 2.166136e+13
2.048085e+04, 2.141824e+13
2.050134e+04, 2.134722e+13
2.052184e+04, 2.147291e+13
2.054236e+04, 2.105894e+13
2.056290e+04, 2.113750e+13
2.058346e+04, 2.133794e+13
2.060405e+04, 2.123308e+13
2.062465e+04, 2.119723e+13
2.064528e+04, 2.067034e+13
2.066592e+04, 2.105997e+13
2.068659e+04, 2.094562e+13
2.070727e+04, 2.108467e+13
2.072798e+04, 2.072035e+13
2.074871e+04, 2.081970e+13
2.076946e+04, 2.081027e+13
2.079023e+04, 2.081178e+13
2.081102e+04, 2.055183e+13
2.083183e+04, 2.055492e+13
2.085266e+04, 2.027881e+13
2.087351e+04, 2.031010e+13
2.089439e+04, 2.024981e+13
2.091528e+04, 2.053822e+13
2.093620e+04, 2.029625e+13
2.095713e+04, 2.011334e+13
2.097809e+04, 2.008740e+13
2.099907e+04, 2.006311e+13
2.102007e+04, 2.001593e+13
2.104109e+04, 2.016867e+13
2.106213e+04, 1.979098e+13
2.108319e+04, 1.975914e+13
2.110427e+04, 1.955863e+13
2.112538e+04, 1.969739e+13
2.114650e+04, 1.989520e+13
2.116765e+04, 1.899926e+13
2.118882e+04, 1.958925e+13
2.121001e+04, 1.944287e+13
2.123122e+04, 1.960388e+13
2.125245e+04, 1.947345e+13
2.127370e+04, 1.944729e+13
2.129497e+04, 1.939172e+13
2.131627e+04, 1.942347e+13
2.133758e+04, 1.938670e+13
2.135892e+04, 1.925433e+13
2.138028e+04, 1.909459e+13
2.140166e+04, 1.906418e+13
2.142306e+04, 1.911828e+13
2.144449e+04, 1.931581e+13
2.146593e+04, 1.906509e+13
2.148740e+04, 1.898646e+13
2.150888e+04, 1.895999e+13
2.153039e+04, 1.876041e+13
2.155192e+04, 1.885598e+13
2.157347e+04, 1.884297e+13
2.159505e+04, 1.870520e+13
2.161664e+04, 1.886828e+13
2.163826e+04, 1.857956e+13
2.165990e+04, 1.866327e+13
2.168156e+04, 1.867091e+13
2.170324e+04, 1.860860e+13
2.172494e+04, 1.855274e+13
2.174667e+04, 1.850520e+13
2.176841e+04, 1.839062e+13
2.179018e+04, 1.796513e+13
2.181197e+04, 1.818862e+13
2.183378e+04, 1.816280e+13
2.185562e+04, 1.823724e+13
2.187747e+04, 1.815004e+13
2.189935e+04, 1.780195e+13
2.192125e+04, 1.812667e+13
2.194317e+04, 1.809933e+13
2.196512e+04, 1.799481e+13
2.198708e+04, 1.786769e+13
2.200907e+04, 1.774477e+13
2.203108e+04, 1.774563e+13
2.205311e+04, 1.667242e+13
2.207516e+04, 1.720233e+13
2.209724e+04, 1.680284e+13
2.211933e+04, 1.762478e+13
2.214145e+04, 1.763770e+13
2.216359e+04, 1.760804e+13
2.218576e+04, 1.757283e+13
2.220794e+04, 1.728044e+13
2.223015e+04, 1.729242e+13
2.225238e+04, 1.735622e+13
2.227463e+04, 1.692045e+13
2.229691e+04, 1.723293e+13
2.231921e+04, 1.715227e+13
2.234152e+04, 1.710298e+13
2.236387e+04, 1.717307e+13
2.238623e+04, 1.696915e+13
2.240862e+04, 1.693136e+13
2.243102e+04, 1.703270e+13
2.245346e+04, 1.692644e+13
2.247591e+04, 1.687085e+13
2.249839e+04, 1.689590e+13
2.252088e+04, 1.686885e+13
2.254340e+04, 1.676985e+13
2.256595e+04, 1.677772e+13
2.258851e+04, 1.666535e+13
2.261110e+04, 1.585855e+13
2.263371e+04, 1.536375e+13
2.265635e+04, 1.532161e+13
2.267900e+04, 1.638561e+13
2.270168e+04, 1.631416e+13
2.272438e+04, 1.635511e+13
2.274711e+04, 1.636996e+13
2.276986e+04, 1.632058e+13
2.279263e+04, 1.623887e+13
2.281542e+04, 1.606205e+13
2.283823e+04, 1.590606e+13
2.286107e+04, 1.609357e+13
2.288393e+04, 1.602041e+13
2.290682e+04, 1.602725e+13
2.292972e+04, 1.503675e+13
2.295265e+04, 1.443841e+13
2.297561e+04, 1.477536e+13
2.299858e+04, 1.515919e+13
2.302158e+04, 1.524253e+13
2.304460e+04, 1.525727e+13
2.306765e+04, 1.483553e+13
2.309071e+04, 1.520262e+13
2.311380e+04, 1.511931e+13
2.313692e+04, 1.518543e+13
2.316006e+04, 1.504851e+13
2.318322e+04, 1.505789e+13
2.320640e+04, 1.509966e+13
2.322961e+04, 1.337330e+13
2.325283e+04, 1.387783e+13
2.327609e+04, 1.427337e+13
2.329936e+04, 1.425912e+13
2.332266e+04, 1.444556e+13
2.334599e+04, 1.394955e+13
2.336933e+04, 1.415361e+13
2.339270e+04, 1.372285e+13
2.341609e+04, 1.439321e+13
2.343951e+04, 1.429527e+13
2.346295e+04, 1.434905e+13
2.348641e+04, 1.425553e+13
2.350990e+04, 1.429568e+13
2.353341e+04, 1.239003e+13
2.355694e+04, 1.346904e+13
2.358050e+04, 1.352269e+13
2.360408e+04, 1.361339e+13
2.362768e+04, 1.366308e+13
2.365131e+04, 1.383000e+13
2.367496e+04, 1.369507e+13
2.369864e+04, 1.364584e+13
2.372234e+04, 1.367865e+13
2.374606e+04, 1.361332e+13
2.376980e+04, 1.375244e+13
2.379357e+04, 1.358950e+13
2.381737e+04, 1.335965e+13
2.384119e+04, 1.197893e+13
2.386503e+04, 1.265885e+13
2.388889e+04, 1.288575e+13
2.391278e+04, 1.291853e+13
2.393669e+04, 1.303902e+13
2.396063e+04, 1.285840e+13
2.398459e+04, 1.295976e+13
2.400858e+04, 1.291159e+13
2.403258e+04, 1.275767e+13
2.405662e+04, 1.286505e+13
2.408067e+04, 1.258089e+13
2.410475e+04, 1.263309e+13
2.412886e+04, 1.253580e+13
2.415299e+04, 1.168402e+13
2.417714e+04, 1.211327e+13
2.420132e+04, 1.219998e+13
2.422552e+04, 1.197154e+13
2.424974e+04, 1.230328e+13
2.427399e+04, 1.196625e+13
2.429827e+04, 1.221441e+13
2.432257e+04, 1.206956e+13
2.434689e+04, 1.189177e+13
2.437124e+04, 1.170469e+13
2.439561e+04, 1.217863e+13
2.442000e+04, 1.177088e+13
2.444442e+04, 1.171315e+13
2.446887e+04, 1.116995e+13
2.449334e+04, 1.136170e+13
2.451783e+04, 1.138298e+13
2.454235e+04, 1.100768e+13
2.456689e+04, 1.148007e+13
2.459146e+04, 1.149290e+13
2.461605e+04, 1.082436e+13
2.464066e+04, 1.139984e+13
2.466530e+04, 1.114584e+13
2.468997e+04, 1.112179e+13
2.471466e+04, 1.120340e+13
2.473937e+04, 1.075201e+13
2.476411e+04, 1.102966e+13
2.478888e+04, 1.072524e+13
2.481367e+04, 1.029402e+13
2.483848e+04, 1.079094e+13
2.486332e+04, 9.426151e+12
2.488818e+04, 9.437460e+12
2.491307e+04, 9.411851e+12
2.493798e+04, 9.599586e+12
2.496292e+04, 9.697385e+12
2.498788e+04, 9.432472e+12
2.501287e+04, 9.635870e+12
2.503788e+04, 9.390735e+12
2.506292e+04, 9.315129e+12
2.508799e+04, 9.715755e+12
2.511307e+04, 9.453707e+12
2.513819e+04, 9.370067e+12
2.516332e+04, 9.408480e+12
2.518849e+04, 9.451630e+12
2.521368e+04, 9.530174e+12
2.523889e+04, 9.060800e+12
2.526413e+04, 9.013931e+12
2.528939e+04, 9.073735e+12
2.531468e+04, 9.501325e+12
2.534000e+04, 9.213510e+12
2.536534e+04, 9.031169e+12
2.539070e+04, 9.303703e+12
2.541609e+04, 9.253214e+12
2.544151e+04, 9.227999e+12
2.546695e+04, 9.244456e+12
2.549242e+04, 9.228694e+12
2.551791e+04, 9.121446e+12
2.554343e+04, 9.271584e+12
2.556897e+04, 9.276259e+12
2.559454e+04, 9.327952e+12
2.562014e+04, 8.993016e+12
2.564576e+04, 9.116819e+12
2.567140e+04, 9.257238e+12
2.569707e+04, 9.041401e+12
2.572277e+04, 9.509100e+12
2.574849e+04, 9.020013e+12
2.577424e+04, 8.865685e+12
2.580002e+04, 9.292520e+12
2.582582e+04, 9.033254e+12
2.585164e+04, 9.416901e+12
2.587749e+04, 9.271307e+12
2.590337e+04, 9.201396e+12
2.592927e+04, 9.407758e+12
2.595520e+04, 9.057768e+12
2.598116e+04, 9.106189e+12
2.600714e+04, 9.392590e+12
2.603315e+04, 9.258879e+12
2.605918e+04, 9.154002e+12
2.608524e+04, 8.819194e+12
2.611132e+04, 9.530147e+12
2.613744e+04, 9.267202e+12
2.616357e+04, 9.307897e+12
2.618974e+04, 8.625930e+12
2.621593e+04, 8.480624e+12
2.624214e+04, 8.603570e+12
2.626838e+04, 8.759886e+12
2.629465e+04, 8.737119e+12
2.632095e+04, 8.862856e+12
2.634727e+04, 8.592470e+12
2.637362e+04, 8.685753e+12
2.639999e+04, 8.436292e+12
2.642639e+04, 8.582869e+12
2.645282e+04, 8.645292e+12
2.647927e+04, 8.706085e+12
2.650575e+04, 8.493900e+12
2.653225e+04, 8.362746e+12
2.655879e+04, 8.094042e+12
2.658534e+04, 8.550411e+12
2.661193e+04, 8.289188e+12
2.663854e+04, 8.437037e+12
2.666518e+04, 8.488704e+12
2.669185e+04, 8.507810e+12
2.671854e+04, 8.451715e+12
2.674526e+04, 8.463122e+12
2.677200e+04, 8.124522e+12
2.679877e+04, 8.430186e+12
2.682557e+04, 8.235401e+12
2.685240e+04, 8.270122e+12
2.687925e+04, 8.469772e+12
2.690613e+04, 8.378106e+12
2.693303e+04, 8.113526e+12
2.695997e+04, 7.888904e+12
2.698693e+04, 8.341845e+12
2.701391e+04, 8.175172e+12
2.704093e+04, 7.899556e+12
2.706797e+04, 8.086909e+12
2.709504e+04, 8.250328e+12
2.712213e+04, 7.883470e+12
2.714925e+04, 7.989606e+12
2.717640e+04, 7.840293e+12
2.720358e+04, 8.123727e+12
2.723078e+04, 7.935611e+12
2.725801e+04, 7.987137e+12
2.728527e+04, 7.627693e+12
2.731256e+04, 8.019527e+12
2.733987e+04, 8.030458e+12
2.736721e+04, 7.551094e+12
2.739458e+04, 7.482160e+12
2.742197e+04, 7.935056e+12
2.744939e+04, 7.801731e+12
2.747684e+04, 7.746074e+12
2.750432e+04, 7.546624e+12
2.753182e+04, 7.671436e+12
2.755936e+04, 7.450397e+12
2.758692e+04, 7.704885e+12
2.761450e+04, 7.670081e+12
2.764212e+04, 7.614707e+12
2.766976e+04, 7.086142e+12
2.769743e+04, 7.342250e+12
2.772513e+04, 7.446840e+12
2.775285e+04, 7.574664e+12
2.778060e+04, 7.399923e+12
2.780839e+04, 7.379399e+12
2.783619e+04, 7.385419e+12
2.786403e+04, 6.993433e+12
2.789189e+04, 7.040614e+12
2.791979e+04, 6.885181e+12
2.794771e+04, 7.232763e+12
2.797565e+04, 7.103303e+12
2.800363e+04, 7.088456e+12
2.803163e+04, 6.577949e+12
2.805966e+04, 6.734368e+12
2.808772e+04, 6.985388e+12
2.811581e+04, 6.967292e+12
2.814393e+04, 6.944021e+12
2.817207e+04, 6.853381e+12
2.820024e+04, 6.522270e+12
2.822844e+04, 6.877257e+12
2.825667e+04, 6.817739e+12
2.828493e+04, 6.903383e+12
2.831321e+04, 6.893084e+12
2.834153e+04, 6.785034e+12
2.836987e+04, 6.520524e+12
2.839824e+04, 6.871014e+12
2.842664e+04, 6.743883e+12
2.845506e+04, 6.839087e+12
2.848352e+04, 6.715423e+12
2.851200e+04, 6.584691e+12
2.854051e+04, 6.331175e+12
2.856905e+04, 6.523707e+12
2.859762e+04, 6.971583e+12
2.862622e+04, 6.703986e+12
2.865485e+04, 6.604618e+12
2.868350e+04, 6.460220e+12
2.871219e+04, 6.364315e+12
2.874090e+04, 6.309440e+12
2.876964e+04, 6.768709e+12
2.879841e+04, 6.694594e+12
2.882721e+04, 6.647149e+12
2.885603e+04, 6.311193e+12
2.888489e+04, 6.287974e+12
2.891377e+04, 6.195446e+12
2.894269e+04, 6.635271e+12
2.897163e+04, 6.634622e+12
2.900060e+04, 6.082322e+12
2.902960e+04, 6.303330e+12
2.905863e+04, 6.410709e+12
2.908769e+04, 5.794201e+12
2.911678e+04, 6.312162e+12
2.914590e+04, 6.448968e+12
2.917504e+04, 6.297481e+12
2.920422e+04, 6.153960e+12
2.923342e+04, 5.899047e+12
2.926265e+04, 6.103837e+12
2.929192e+04, 5.696296e+12
2.932121e+04, 6.275923e+12
2.935053e+04, 5.997000e+12
2.937988e+04, 6.003892e+12
2.940926e+04, 5.846190e+12
2.943867e+04, 5.738387e+12
2.946811e+04, 5.780361e+12
2.949758e+04, 5.706329e+12
2.952707e+04, 6.030241e+12
2.955660e+04, 5.765947e+12
2.958616e+04, 5.999653e+12
2.961574e+04, 5.628284e+12
2.964536e+04, 5.822544e+12
2.967501e+04, 5.617868e+12
2.970468e+04, 5.579992e+12
2.973439e+04, 5.846168e+12
2.976412e+04, 5.928961e+12
2.979388e+04, 5.793264e+12
2.982368e+04, 5.630739e+12
2.985350e+04, 5.759460e+12
2.988335e+04, 5.304912e+12
2.991324e+04, 5.621016e+12
2.994315e+04, 5.817729e+12
2.997309e+04, 5.730166e+12
3.000307e+04, 5.528788e+12
3.003307e+04, 5.506206e+12
3.006310e+04, 5.484667e+12
3.009317e+04, 5.020416e+12
3.012326e+04, 5.553253e+12
3.015338e+04, 5.794282e+12
3.018354e+04, 5.652511e+12
3.021372e+04, 5.416645e+12
3.024393e+04, 5.448394e+12
3.027418e+04, 5.326193e+12
3.030445e+04, 5.319520e+12
3.033476e+04, 5.581089e+12
3.036509e+04, 5.492255e+12
3.039546e+04, 5.494904e+12
3.042585e+04, 5.128447e+12
3.045628e+04, 5.255476e+12
3.048673e+04, 4.983678e+12
3.051722e+04, 5.166817e+12
3.054774e+04, 5.533701e+12
3.057829e+04, 5.348081e+12
3.060886e+04, 5.379249e+12
3.063947e+04, 5.285296e+12
3.067011e+04, 5.244842e+12
3.070078e+04, 5.101709e+12
3.073148e+04, 5.035245e+12
3.076221e+04, 5.252585e+12
3.079298e+04, 5.263211e+12
3.082377e+04, 5.193742e+12
3.085459e+04, 4.904026e+12
3.088545e+04, 4.997454e+12
3.091633e+04, 4.864826e+12
3.094725e+04, 5.001615e+12
3.097820e+04, 5.016309e+12
3.100918e+04, 5.256335e+12
3.104018e+04, 5.196368e+12
3.107122e+04, 4.925457e+12
3.110230e+04, 4.999678e+12
3.113340e+04, 4.918343e+12
3.116453e+04, 4.840989e+12
3.119570e+04, 4.909315e+12
3.122689e+04, 5.041976e+12
3.125812e+04, 5.048692e+12
3.128938e+04, 4.803842e+12
3.132067e+04, 4.575334e+12
3.135199e+04, 4.684781e+12
3.138334e+04, 4.927063e+12
3.141472e+04, 4.937287e+12
3.144614e+04, 4.797925e+12
3.147758e+04, 4.831309e+12
3.150906e+04, 4.885823e+12
3.154057e+04, 4.753514e+12
3.157211e+04, 4.575386e+12
3.160368e+04, 4.868476e+12
3.163529e+04, 4.850719e+12
3.166692e+04, 4.743475e+12
3.169859e+04, 4.810346e+12
3.173029e+04, 4.725835e+12
3.176202e+04, 4.716592e+12
3.179378e+04, 4.398654e+12
3.182557e+04, 4.544179e+12
3.185740e+04, 4.710234e+12
3.188926e+04, 4.660978e+12
3.192115e+04, 4.626671e+12
3.195307e+04, 4.649126e+12
3.198502e+04, 4.502743e+12
3.201700e+04, 4.469746e+12
3.204902e+04, 4.615671e+12
3.208107e+04, 4.714601e+12
3.211315e+04, 4.672056e+12
3.214526e+04, 4.625785e+12
3.217741e+04, 4.521952e+12
3.220959e+04, 4.534928e+12
3.224180e+04, 4.552519e+12
3.227404e+04, 4.377348e+12
3.230631e+04, 4.503270e+12
3.233862e+04, 4.394352e+12
3.237096e+04, 4.395545e+12
3.240333e+04, 4.404608e+12
3.243573e+04, 4.344805e+12
3.246817e+04, 4.404945e+12
3.250064e+04, 4.435912e+12
3.253314e+04, 4.437654e+12
3.256567e+04, 4.506483e+12
3.259824e+04, 4.488522e+12
3.263083e+04, 4.408567e+12
3.266346e+04, 4.376458e+12
3.269613e+04, 4.315858e+12
3.272882e+04, 4.436353e+12
3.276155e+04, 4.268410e+12
3.279431e+04, 4.324804e+12
3.282711e+04, 4.166853e+12
3.285994e+04, 4.083741e+12
3.289280e+04, 4.279375e+12
3.292569e+04, 4.144213e+12
3.295861e+04, 4.268242e+12
3.299157e+04, 4.276384e+12
3.302456e+04, 4.331579e+12
3.305759e+04, 4.276087e+12
3.309065e+04, 4.186608e+12
3.312374e+04, 4.255814e+12
3.315686e+04, 4.146447e+12
3.319002e+04, 4.096043e+12
3.322321e+04, 4.218197e+12
3.325643e+04, 4.165984e+12
3.328969e+04, 4.271681e+12
3.332298e+04, 4.189986e+12
3.335630e+04, 4.063274e+12
3.338966e+04, 3.793270e+12
3.342305e+04, 3.976248e+12
3.345647e+04, 4.059993e+12
3.348993e+04, 4.105374e+12
3.352342e+04, 4.128924e+12
3.355694e+04, 3.991856e+12
3.359050e+04, 4.087161e+12
3.362409e+04, 4.085140e+12
3.365771e+04, 3.998125e+12
3.369137e+04, 4.068553e+12
3.372506e+04, 4.048907e+12
3.375878e+04, 3.994970e+12
3.379254e+04, 4.013466e+12
3.382634e+04, 4.001571e+12
3.386016e+04, 3.998357e+12
3.389402e+04, 4.025331e+12
3.392792e+04, 3.817622e+12
3.396184e+04, 3.583345e+12
3.399581e+04, 3.865935e+12
3.402980e+04, 3.933746e+12
3.406383e+04, 3.874747e+12
3.409790e+04, 3.842116e+12
3.413199e+04, 3.817556e+12
3.416613e+04, 3.841030e+12
3.420029e+04, 3.878204e+12
3.423449e+04, 3.895940e+12
3.426873e+04, 3.891009e+12
3.430300e+04, 3.863787e+12
3.433730e+04, 3.864799e+12
3.437164e+04, 3.845385e+12
3.440601e+04, 3.813125e+12
3.444041e+04, 3.772181e+12
3.447485e+04, 3.740067e+12
3.450933e+04, 3.665952e+12
3.454384e+04, 3.638227e+12
3.457838e+04, 3.505151e+12
3.461296e+04, 3.671239e+12
3.464757e+04, 3.670074e+12
3.468222e+04, 3.773651e+12
3.471690e+04, 3.753828e+12
3.475162e+04, 3.722184e+12
3.478637e+04, 3.732857e+12
3.482116e+04, 3.673998e+12
3.485598e+04, 3.682177e+12
3.489083e+04, 3.653017e+12
3.492573e+04, 3.628129e+12
3.496065e+04, 3.686036e+12
3.499561e+04, 3.595444e+12
3.503061e+04, 3.655323e+12
3.506564e+04, 3.563154e+12
3.510070e+04, 3.482780e+12
3.513580e+04, 3.473819e+12
3.517094e+04, 3.541852e+12
3.520611e+04, 3.291564e+12
3.524132e+04, 3.456310e+12
3.527656e+04, 3.548937e+12
3.531184e+04, 3.580170e+12
3.534715e+04, 3.553047e+12
3.538249e+04, 3.468250e+12
3.541788e+04, 3.515935e+12
3.545329e+04, 3.473678e+12
3.548875e+04, 3.457759e+12
3.552424e+04, 3.455994e+12
3.555976e+04, 3.462617e+12
3.559532e+04, 3.450758e+12
3.563092e+04, 3.463390e+12
3.566655e+04, 3.442611e+12
3.570221e+04, 3.219190e+12
3.573792e+04, 3.278640e+12
3.577365e+04, 3.314034e+12
3.580943e+04, 3.403100e+12
3.584524e+04, 3.383785e+12
3.588108e+04, 3.171443e+12
3.591696e+04, 3.263835e+12
3.595288e+04, 3.360875e+12
3.598883e+04, 3.302008e+12
3.602482e+04, 3.305868e+12
3.606085e+04, 3.340847e+12
3.609691e+04, 3.330311e+12
3.613300e+04, 3.299860e+12
3.616914e+04, 3.285143e+12
3.620531e+04, 3.284229e+12
3.624151e+04, 3.268511e+12
3.627775e+04, 3.276818e+12
3.631403e+04, 3.185247e+12
3.635035e+04, 3.112008e+12
3.638670e+04, 3.025924e+12
3.642308e+04, 3.224498e+12
3.645951e+04, 3.204171e+12
3.649596e+04, 3.174824e+12
3.653246e+04, 3.166673e+12
3.656899e+04, 3.096928e+12
3.660556e+04, 3.050664e+12
3.664217e+04, 3.083254e+12
3.667881e+04, 3.156255e+12
3.671549e+04, 3.153233e+12
3.675220e+04, 3.128923e+12
3.678896e+04, 3.100461e+12
3.682575e+04, 3.115625e+12
3.686257e+04, 3.094436e+12
3.689943e+04, 3.093394e+12
3.693633e+04, 3.043597e+12
3.697327e+04, 2.890086e+12
3.701024e+04, 2.964545e+12
3.704725e+04, 2.949618e+12
3.708430e+04, 2.869722e+12
3.712138e+04, 3.024248e+12
3.715851e+04, 2.999323e+12
3.719566e+04, 3.012922e+12
3.723286e+04, 3.003025e+12
3.727009e+04, 3.003413e+12
3.730736e+04, 2.982067e+12
3.734467e+04, 2.780088e+12
3.738202e+04, 2.891283e+12
3.741940e+04, 2.944270e+12
3.745682e+04, 2.943030e+12
3.749427e+04, 2.946163e+12
3.753177e+04, 2.934948e+12
3.756930e+04, 2.918498e+12
3.760687e+04, 2.891770e+12
3.764448e+04, 2.818633e+12
3.768212e+04, 2.818743e+12
3.771980e+04, 2.839896e+12
3.775752e+04, 2.785886e+12
3.779528e+04, 2.771022e+12
3.783307e+04, 2.811669e+12
3.787091e+04, 2.850440e+12
3.790878e+04, 2.840567e+12
3.794669e+04, 2.829841e+12
3.798463e+04, 2.807373e+12
3.802262e+04, 2.819379e+12
3.806064e+04, 2.777285e+12
3.809870e+04, 2.710261e+12
3.813680e+04, 2.625083e+12
3.817494e+04, 2.761582e+12
3.821311e+04, 2.763104e+12
3.825133e+04, 2.746462e+12
3.828958e+04, 2.735590e+12
3.832787e+04, 2.675577e+12
3.836619e+04, 2.629755e+12
3.840456e+04, 2.648218e+12
3.844297e+04, 2.709266e+12
3.848141e+04, 2.665604e+12
3.851989e+04, 2.635354e+12
3.855841e+04, 2.604883e+12
3.859697e+04, 2.629429e+12
3.863556e+04, 2.618996e+12
3.867420e+04, 2.555169e+12
3.871287e+04, 2.609447e+12
3.875159e+04, 2.621369e+12
3.879034e+04, 2.616202e+12
3.882913e+04, 2.620910e+12
3.886796e+04, 2.587517e+12
3.890683e+04, 2.576085e+12
3.894573e+04, 2.446161e+12
3.898468e+04, 2.523208e+12
3.902366e+04, 2.555226e+12
3.906269e+04, 2.504972e+12
3.910175e+04, 2.425059e+12
3.914085e+04, 2.485765e+12
3.917999e+04, 2.534846e+12
3.921917e+04, 2.514743e+12
3.925839e+04, 2.516395e+12
3.929765e+04, 2.486773e+12
3.933695e+04, 2.430617e+12
3.937628e+04, 2.420493e+12
3.941566e+04, 2.479354e+12
3.945508e+04, 2.470259e+12
3.949453e+04, 2.448019e+12
3.953403e+04, 2.417189e+12
3.957356e+04, 2.434090e+12
3.961313e+04, 2.434301e+12
3.965275e+04, 2.422863e+12
3.969240e+04, 2.413062e+12
3.973209e+04, 2.400345e+12
3.977182e+04, 2.363229e+12
3.981160e+04, 2.250889e+12
3.985141e+04, 2.270513e+12
3.989126e+04, 2.309805e+12
3.993115e+04, 2.327658e+12
3.997108e+04, 2.340451e+12
4.001105e+04, 2.340338e+12
4.005106e+04, 2.322472e+12
4.009111e+04, 2.318552e+12
4.013121e+04, 2.311444e+12
4.017134e+04, 2.260094e+12
4.021151e+04, 2.200300e+12
4.025172e+04, 2.280860e+12
4.029197e+04, 2.280091e+12
4.033226e+04, 2.272645e+12
4.037260e+04, 2.268659e+12
4.041297e+04, 2.238899e+12
4.045338e+04, 2.143754e+12
4.049383e+04, 2.216095e+12
4.053433e+04, 2.199009e+12
4.057486e+04, 2.191472e+12
4.061544e+04, 2.184713e+12
4.065605e+04, 2.195159e+12
4.069671e+04, 2.110500e+12
4.073741e+04, 2.102003e+12
4.077814e+04, 2.139508e+12
4.081892e+04, 2.154932e+12
4.085974e+04, 2.114923e+12
4.090060e+04, 2.127579e+12
4.094150e+04, 2.131055e+12
4.098244e+04, 2.125038e+12
4.102342e+04, 2.125463e+12
4.106445e+04, 2.097984e+12
4.110551e+04, 2.024615e+12
4.114662e+04, 2.092471e+12
4.118776e+04, 2.084903e+12
4.122895e+04, 2.077092e+12
4.127018e+04, 2.056464e+12
4.131145e+04, 2.046138e+12
4.135276e+04, 2.037144e+12
4.139412e+04, 2.008762e+12
4.143551e+04, 2.033652e+12
4.147695e+04, 2.036617e+12
4.151842e+04, 2.034588e+12
4.155994e+04, 1.999900e+12
4.160150e+04, 1.964217e+12
4.164310e+04, 1.988683e+12
4.168475e+04, 1.903096e+12
4.172643e+04, 1.957369e+12
4.176816e+04, 1.979985e+12
4.180992e+04, 1.975845e+12
4.185173e+04, 1.936711e+12
4.189359e+04, 1.959634e+12
4.193548e+04, 1.932455e+12
4.197742e+04, 1.945512e+12
4.201939e+04, 1.880575e+12
4.206141e+04, 1.896112e+12
4.210347e+04, 1.900906e+12
4.214558e+04, 1.901786e+12
4.218772e+04, 1.888714e+12
4.222991e+04, 1.876722e+12
4.227214e+04, 1.891233e+12
4.231441e+04, 1.897427e+12
4.235673e+04, 1.891310e+12
4.239908e+04, 1.878763e+12
4.244148e+04, 1.869968e+12
4.248392e+04, 1.834882e+12
4.252641e+04, 1.800177e+12
4.256893e+04, 1.842269e+12
4.261150e+04, 1.833978e+12
4.265411e+04, 1.830530e+12
4.269677e+04, 1.787918e+12
4.273947e+04, 1.777947e+12
4.278221e+04, 1.824423e+12
4.282499e+04, 1.808443e+12
4.286781e+04, 1.808778e+12
4.291068e+04, 1.796366e+12
4.295359e+04, 1.655829e+12
4.299654e+04, 1.662705e+12
4.303954e+04, 1.652277e+12
4.308258e+04, 1.696395e+12
4.312566e+04, 1.689626e+12
4.316879e+04, 1.696019e+12
4.321196e+04, 1.696783e+12
4.325517e+04, 1.686560e+12
4.329842e+04, 1.677153e+12
4.334172e+04, 1.690127e+12
4.338506e+04, 1.663777e+12
4.342845e+04, 1.648287e+12
4.347188e+04, 1.646657e+12
4.351535e+04, 1.557711e+12
4.355887e+04, 1.572130e+12
4.360242e+04, 1.600084e+12
4.364603e+04, 1.598429e+12
4.368967e+04, 1.560039e+12
4.373336e+04, 1.574763e+12
4.377710e+04, 1.557018e+12
4.382087e+04, 1.556338e+12
4.386469e+04, 1.561815e+12
4.390856e+04, 1.581794e+12
4.395247e+04, 1.537972e+12
4.399642e+04, 1.555330e+12
4.404042e+04, 1.516185e+12
4.408446e+04, 1.435695e+12
4.412854e+04, 1.473027e+12
4.417267e+04, 1.476647e+12
4.421684e+04, 1.490891e+12
4.426106e+04, 1.479539e+12
4.430532e+04, 1.474669e+12
4.434963e+04, 1.438726e+12
4.439398e+04, 1.447949e+12
4.443837e+04, 1.481854e+12
4.448281e+04, 1.439006e+12
4.452729e+04, 1.464417e+12
4.457182e+04, 1.427125e+12
4.461639e+04, 1.453144e+12
4.466101e+04, 1.374774e+12
4.470567e+04, 1.389130e+12
4.475037e+04, 1.425965e+12
4.479512e+04, 1.359987e+12
4.483992e+04, 1.413830e+12
4.488476e+04, 1.380579e+12
4.492964e+04, 1.380764e+12
4.497457e+04, 1.397997e+12
4.501955e+04, 1.384513e+12
4.506457e+04, 1.355242e+12
4.510963e+04, 1.356572e+12
4.515474e+04, 1.356702e+12
4.519990e+04, 1.326407e+12
4.524510e+04, 1.341836e+12
4.529034e+04, 1.340025e+12
4.533563e+04, 1.293136e+12
4.538097e+04, 1.328896e+12
4.542635e+04, 1.342821e+12
4.547177e+04, 1.316733e+12
4.551725e+04, 1.286889e+12
4.556276e+04, 1.323899e+12
4.560833e+04, 1.297952e+12
4.565393e+04, 1.293105e+12
4.569959e+04, 1.305356e+12
4.574529e+04, 1.275370e+12
4.579103e+04, 1.305508e+12
4.583682e+04, 1.271323e+12
4.588266e+04, 1.230245e+12
4.592854e+04, 1.287247e+12
4.597447e+04, 1.255587e+12
4.602045e+04, 1.258552e+12
4.606647e+04, 1.267466e+12
4.611253e+04, 1.256252e+12
4.615865e+04, 1.206487e+12
4.620480e+04, 1.264441e+12
4.625101e+04, 1.204513e+12
4.629726e+04, 1.267420e+12
4.634356e+04, 1.247533e+12
4.638990e+04, 1.201063e+12
4.643629e+04, 1.241369e+12
4.648273e+04, 1.208123e+12
4.652921e+04, 1.220917e+12
4.657574e+04, 1.234087e+12
4.662231e+04, 1.201942e+12
4.666894e+04, 1.192865e+12
4.671561e+04, 1.224263e+12
4.676232e+04, 1.207520e+12
4.680908e+04, 1.169958e+12
4.685589e+04, 1.220304e+12
4.690275e+04, 1.167453e+12
4.694965e+04, 1.213595e+12
4.699660e+04, 1.166619e+12
4.704360e+04, 1.190179e+12
4.709064e+04, 1.160336e+12
4.713773e+04, 1.170159e+12
4.718487e+04, 1.148828e+12
4.723205e+04, 1.194210e+12
4.727929e+04, 1.141521e+12
4.732657e+04, 1.143417e+12
4.737389e+04, 1.153698e+12
4.742127e+04, 1.153179e+12
4.746869e+04, 1.148741e+12
4.751616e+04, 1.136952e+12
4.756367e+04, 1.122553e+12
4.761124e+04, 1.129014e+12
4.765885e+04, 1.111613e+12
4.770651e+04, 1.140836e+12
4.775421e+04, 1.114102e+12
4.780197e+04, 1.111638e+12
4.784977e+04, 1.089358e+12
4.789762e+04, 1.146900e+12
4.794552e+04, 1.054529e+12
4.799346e+04, 1.120385e+12
4.804146e+04, 1.082379e+12
4.808950e+04, 1.098491e+12
4.813759e+04, 1.062881e+12
4.818572e+04, 1.100448e+12
4.823391e+04, 1.081875e+12
4.828214e+04, 1.111084e+12
4.833043e+04, 1.055280e+12
4.837876e+04, 1.077572e+12
4.842713e+04, 1.059200e+12
4.847556e+04, 1.078644e+12
4.852404e+04, 1.052303e+12
4.857256e+04, 1.070096e+12
4.862113e+04, 1.052444e+12
4.866976e+04, 1.050569e+12
4.871842e+04, 1.020329e+12
4.876714e+04, 1.018328e+12
4.881591e+04, 1.061729e+12
4.886473e+04, 1.021781e+12
4.891359e+04, 1.040215e+12
4.896250e+04, 9.973340e+11
4.901147e+04, 1.046276e+12
4.906048e+04, 1.025429e+12
4.910954e+04, 1.015923e+12
4.915865e+04, 1.009834e+12
4.920781e+04, 1.008292e+12
4.925702e+04, 9.796197e+11
4.930627e+04, 1.001729e+12
4.935558e+04, 9.794986e+11
4.940493e+04, 1.023472e+12
4.945434e+04, 9.900402e+11
4.950379e+04, 9.734657e+11
4.955330e+04, 9.635240e+11
4.960285e+04, 9.610534e+11
4.965245e+04, 9.938400e+11
4.970211e+04, 9.424535e+11
4.975181e+04, 1.003124e+12
4.980156e+04, 9.550350e+11
4.985136e+04, 9.795382e+11
4.990121e+04, 9.314098e+11
4.995111e+04, 9.624384e+11
5.000106e+04, 9.295244e+11
5.005107e+04, 9.554165e+11
5.010112e+04, 9.274456e+11
5.015122e+04, 9.379993e+11
5.020137e+04, 9.116226e+11
5.025157e+04, 9.253008e+11
5.030182e+04, 9.141346e+11
5.035212e+04, 9.324167e+11
5.040248e+04, 9.191920e+11
5.045288e+04, 9.066708e+11
5.050333e+04, 9.553744e+11
5.055383e+04, 8.927676e+11
5.060439e+04, 9.097606e+11
5.065499e+04, 8.805912e+11
5.070565e+04, 9.282359e+11
5.075635e+04, 9.024902e+11
5.080711e+04, 8.718378e+11
5.085792e+04, 9.055638e+11
5.090878e+04, 8.728445e+11
5.095968e+04, 8.819835e+11
5.101064e+04, 8.958317e+11
5.106165e+04, 8.639964e+11
5.111272e+04, 8.759388e+11
5.116383e+04, 8.827539e+11
5.121499e+04, 8.573015e+11
5.126621e+04, 8.692794e+11
5.131747e+04, 8.416601e+11
5.136879e+04, 8.811454e+11
5.142016e+04, 8.646110e+11
5.147158e+04, 8.180371e+11
5.152305e+04, 8.824864e+11
5.157457e+04, 8.402750e+11
5.162615e+04, 8.382093e+11
5.167778e+04, 8.349222e+11
5.172945e+04, 8.303550e+11
5.178118e+04, 8.484794e+11
5.183296e+04, 8.341055e+11
5.188480e+04, 8.341632e+11
5.193668e+04, 8.346013e+11
5.198862e+04, 8.015175e+11
5.204061e+04, 8.175207e+11
5.209265e+04, 8.386753e+11
5.214474e+04, 8.115097e+11
5.219688e+04, 8.166525e+11
5.224908e+04, 7.975633e+11
5.230133e+04, 8.023575e+11
5.235363e+04, 8.160927e+11
5.240599e+04, 7.821225e+11
5.245839e+04, 8.009566e+11
5.251085e+04, 7.930112e+11
5.256336e+04, 7.874455e+11
5.261592e+04, 8.110926e+11
5.266854e+04, 7.851417e+11
5.272121e+04, 7.785179e+11
5.277393e+04, 7.924444e+11
5.282670e+04, 7.597731e+11
5.287953e+04, 7.856786e+11
5.293241e+04, 7.655420e+11
5.298534e+04, 7.645092e+11
5.303833e+04, 7.835228e+11
5.309137e+04, 7.399268e+11
5.314446e+04, 7.711583e+11
5.319760e+04, 7.519210e+11
5.325080e+04, 7.491485e+11
5.330405e+04, 7.551861e+11
5.335735e+04, 7.617989e+11
5.341071e+04, 7.397543e+11
5.346412e+04, 7.468849e+11
5.351759e+04, 7.354524e+11
5.357110e+04, 7.482576e+11
5.362468e+04, 7.406029e+11
5.367830e+04, 7.320273e+11
5.373198e+04, 7.401165e+11
5.378571e+04, 7.202075e+11
5.383950e+04, 7.346545e+11
5.389334e+04, 7.241257e+11
5.394723e+04, 7.218527e+11
5.400118e+04, 7.296460e+11
5.405518e+04, 7.216689e+11
5.410923e+04, 6.966085e+11
5.416334e+04, 7.157814e+11
5.421751e+04, 7.044364e+11
5.427172e+04, 6.975430e+11
5.432599e+04, 7.080489e+11
5.438032e+04, 6.883093e+11
5.443470e+04, 7.111474e+11
5.448914e+04, 7.081191e+11
5.454362e+04, 6.820599e+11
5.459817e+04, 6.987816e+11
5.465277e+04, 6.864365e+11
5.470742e+04, 6.855948e+11
5.476213e+04, 6.840189e+11
5.481689e+04, 6.884354e+11
5.487171e+04, 6.897312e+11
5.492658e+04, 6.721184e+11
5.498150e+04, 6.784056e+11
5.503649e+04, 6.867980e+11
5.509152e+04, 6.619484e+11
5.514661e+04, 6.684667e+11
5.520176e+04, 6.789552e+11
5.525696e+04, 6.492706e+11
5.531222e+04, 6.531210e+11
5.536753e+04, 6.831362e+11
5.542290e+04, 6.508578e+11
5.547832e+04, 6.458703e+11
5.553380e+04, 6.615276e+11
5.558933e+04, 6.487362e+11
5.564492e+04, 6.433432e+11
5.570057e+04, 6.530442e+11
5.575627e+04, 6.444792e+11
5.581202e+04, 6.346908e+11
5.586784e+04, 6.399213e+11
5.592370e+04, 6.457624e+11
5.597963e+04, 6.452022e+11
5.603561e+04, 6.322812e+11
5.609164e+04, 6.364341e+11
5.614774e+04, 6.320966e+11
5.620388e+04, 6.160121e+11
5.626009e+04, 6.292517e+11
5.631635e+04, 6.211984e+11
5.637266e+04, 6.209142e+11
5.642904e+04, 6.197423e+11
5.648546e+04, 6.210258e+11
5.654195e+04, 6.102921e+11
5.659849e+04, 6.125066e+11
5.665509e+04, 6.084306e+11
5.671175e+04, 6.213328e+11
5.676846e+04, 5.980163e+11
5.682523e+04, 5.995807e+11
5.688205e+04, 6.052238e+11
5.693893e+04, 5.904520e+11
5.699587e+04, 6.031644e+11
5.705287e+04, 6.068072e+11
5.710992e+04, 5.905364e+11
5.716703e+04, 5.799768e+11
5.722420e+04, 5.884359e+11
5.728142e+04, 5.894420e+11
5.733870e+04, 5.706864e+11
5.739604e+04, 5.859843e+11
5.745344e+04, 5.910642e+11
5.751089e+04, 5.828674e+11
5.756840e+04, 5.779052e+11
5.762597e+04, 5.763473e+11
5.768360e+04, 5.800347e+11
5.774128e+04, 5.695196e+11
5.779902e+04, 5.664461e+11
5.785682e+04, 5.730585e+11
5.791468e+04, 5.664779e+11
5.797259e+04, 5.564447e+11
5.803056e+04, 5.742577e+11
5.808860e+04, 5.698589e+11
5.814668e+04, 5.515209e+11
5.820483e+04, 5.539534e+11
5.826304e+04, 5.602803e+11
5.832130e+04, 5.465885e+11
5.837962e+04, 5.466671e+11
5.843800e+04, 5.526916e+11
5.849644e+04, 5.497797e+11
5.855493e+04, 5.393169e+11
5.861349e+04, 5.524256e+11
5.867210e+04, 5.509184e+11
5.873077e+04, 5.322841e+11
5.878951e+04, 5.385745e+11
5.884829e+04, 5.372572e+11
5.890714e+04, 5.473321e+11
5.896605e+04, 5.237009e+11
5.902502e+04, 5.234064e+11
5.908404e+04, 5.340589e+11
5.914313e+04, 5.284626e+11
5.920227e+04, 5.263584e+11
5.926147e+04, 5.324305e+11
5.932073e+04, 5.273585e+11
5.938005e+04, 5.176521e+11
5.943943e+04, 5.208930e+11
5.949887e+04, 5.169192e+11
5.955837e+04, 5.191163e+11
5.961793e+04, 5.117491e+11
5.967755e+04, 5.070139e+11
5.973723e+04, 5.155647e+11
5.979696e+04, 5.078045e+11
5.985676e+04, 5.079740e+11
5.991662e+04, 5.057821e+11
5.997653e+04, 5.054014e+11
6.003651e+04, 5.061896e+11
6.009655e+04, 5.084298e+11
6.015664e+04, 5.000893e+11
6.021680e+04, 4.932833e+11
6.027702e+04, 5.007801e+11
6.033729e+04, 4.881564e+11
6.039763e+04, 4.865499e+11
6.045803e+04, 4.862765e+11
6.051849e+04, 4.877184e+11
6.057900e+04, 4.898348e+11
6.063958e+04, 4.857967e+11
6.070022e+04, 4.871858e+11
6.076092e+04, 4.853476e+11
6.082168e+04, 4.838040e+11
6.088251e+04, 4.768105e+11
6.094339e+04, 4.825368e+11
6.100433e+04, 4.728291e+11
6.106534e+04, 4.744224e+11
6.112640e+04, 4.646056e+11
6.118753e+04, 4.713149e+11
6.124872e+04, 4.714564e+11
6.130996e+04, 4.721589e+11
6.137127e+04, 4.719304e+11
6.143265e+04, 4.635037e+11
6.149408e+04, 4.633863e+11
6.155557e+04, 4.643746e+11
6.161713e+04, 4.603898e+11
6.167874e+04, 4.629467e+11
6.174042e+04, 4.507717e+11
6.180216e+04, 4.581238e+11
6.186397e+04, 4.535007e+11
6.192583e+04, 4.529710e+11
6.198776e+04, 4.498083e+11
6.204974e+04, 4.503890e+11
6.211179e+04, 4.522156e+11
6.217390e+04, 4.426867e+11
6.223608e+04, 4.467619e+11
6.229831e+04, 4.489324e+11
6.236061e+04, 4.442768e+11
6.242297e+04, 4.318365e+11
6.248540e+04, 4.358355e+11
6.254788e+04, 4.371857e+11
6.261043e+04, 4.327480e+11
6.267304e+04, 4.341729e+11
6.273571e+04, 4.290841e+11
6.279845e+04, 4.300931e+11
6.286125e+04, 4.348580e+11
6.292411e+04, 4.230607e+11
6.298703e+04, 4.245946e+11
6.305002e+04, 4.275806e+11
6.311307e+04, 4.236452e+11
6.317618e+04, 4.176802e+11
6.323936e+04, 4.203866e+11
6.330260e+04, 4.196567e+11
6.336590e+04, 4.153658e+11
6.342927e+04, 4.131540e+11
6.349270e+04, 4.127076e+11
6.355619e+04, 4.053830e+11
6.361975e+04, 4.112707e+11
6.368337e+04, 4.104599e+11
6.374705e+04, 4.084835e+11
6.381080e+04, 4.006036e+11
6.387461e+04, 3.990119e+11
6.393848e+04, 4.034612e+11
6.400242e+04, 4.028783e+11
6.406642e+04, 3.934145e+11
6.413049e+04, 3.917701e+11
6.419462e+04, 3.914852e+11
6.425881e+04, 3.967373e+11
6.432307e+04, 3.871336e+11
6.438740e+04, 3.871146e+11
6.445178e+04, 3.887165e+11
6.451623e+04, 3.788481e+11
6.458075e+04, 3.805787e+11
6.464533e+04, 3.818907e+11
6.470998e+04, 3.637541e+11
6.477469e+04, 3.664097e+11
6.483946e+04, 3.657604e+11
6.490430e+04, 3.723373e+11
6.496921e+04, 3.658230e+11
6.503417e+04, 3.599160e+11
6.509921e+04, 3.710597e+11
6.516431e+04, 3.587400e+11
6.522947e+04, 3.627719e+11
6.529470e+04, 3.556368e+11
6.536000e+04, 3.574108e+11
6.542536e+04, 3.523890e+11
6.549078e+04, 3.528939e+11
6.555627e+04, 3.514172e+11
6.562183e+04, 3.463220e+11
6.568745e+04, 3.426676e+11
6.575314e+04, 3.442022e+11
6.581889e+04, 3.490328e+11
6.588471e+04, 3.443589e+11
6.595059e+04, 3.289703e+11
6.601655e+04, 3.367232e+11
6.608256e+04, 3.446414e+11
6.614864e+04, 3.355534e+11
6.621479e+04, 3.253546e+11
6.628101e+04, 3.283562e+11
6.634729e+04, 3.268113e+11
6.641364e+04, 3.266867e+11
6.648005e+04, 3.329631e+11
6.654653e+04, 3.236665e+11
6.661308e+04, 3.262345e+11
6.667969e+04, 3.259765e+11
6.674637e+04, 3.249120e+11
6.681312e+04, 3.164637e+11
6.687993e+04, 3.147067e+11
6.694681e+04, 3.175357e+11
6.701376e+04, 3.214552e+11
6.708077e+04, 3.219191e+11
6.714785e+04, 3.174162e+11
6.721500e+04, 3.165924e+11
6.728221e+04, 3.132735e+11
6.734949e+04, 3.154360e+11
6.741684e+04, 3.137958e+11
6.748426e+04, 3.064809e+11
6.755175e+04, 3.108320e+11
6.761930e+04, 3.071457e+11
6.768692e+04, 3.035336e+11
6.775460e+04, 3.039742e+11
6.782236e+04, 2.985917e+11
6.789018e+04, 3.001572e+11
6.795807e+04, 3.002349e+11
6.802603e+04, 3.045479e+11
6.809405e+04, 2.992425e+11
6.816215e+04, 2.899110e+11
6.823031e+04, 2.972372e+11
6.829854e+04, 2.932398e+11
6.836684e+04, 2.894251e+11
6.843521e+04, 2.998116e+11
6.850364e+04, 2.945829e+11
6.857215e+04, 2.879902e+11
6.864072e+04, 2.903975e+11
6.870936e+04, 2.881218e+11
6.877807e+04, 2.911481e+11
6.884685e+04, 2.846037e+11
6.891569e+04, 2.866644e+11
6.898461e+04, 2.875185e+11
6.905359e+04, 2.786424e+11
6.912265e+04, 2.844686e+11
6.919177e+04, 2.790975e+11
6.926096e+04, 2.792235e+11
6.933022e+04, 2.815633e+11
6.939955e+04, 2.769796e+11
6.946895e+04, 2.782115e+11
6.953842e+04, 2.745946e+11
6.960796e+04, 2.758341e+11
6.967757e+04, 2.716763e+11
6.974724e+04, 2.737925e+11
6.981699e+04, 2.707558e+11
6.988681e+04, 2.749651e+11
6.995670e+04, 2.763322e+11
7.002665e+04, 2.668035e+11
7.009668e+04, 2.634149e+11
7.016678e+04, 2.674074e+11
7.023694e+04, 2.650698e+11
7.030718e+04, 2.625404e+11
7.037749e+04, 2.713073e+11
7.044786e+04, 2.644199e+11
7.051831e+04, 2.593939e+11
7.058883e+04, 2.655500e+11
7.065942e+04, 2.630250e+11
7.073008e+04, 2.582088e+11
7.080081e+04, 2.568443e+11
7.087161e+04, 2.590328e+11
7.094248e+04, 2.550401e+11
7.101342e+04, 2.549631e+11
7.108444e+04, 2.529034e+11
7.115552e+04, 2.555072e+11
7.122668e+04, 2.516974e+11
7.129790e+04, 2.539815e+11
7.136920e+04, 2.506425e+11
7.144057e+04, 2.496279e+11
7.151201e+04, 2.481929e+11
7.158352e+04, 2.539344e+11
7.165511e+04, 2.510640e+11
7.172676e+04, 2.475382e+11
7.179849e+04, 2.458431e+11
7.187029e+04, 2.463788e+11
7.194216e+04, 2.447621e+11
7.201410e+04, 2.437124e+11
7.208611e+04, 2.416297e+11
7.215820e+04, 2.412770e+11
7.223036e+04, 2.399113e+11
7.230259e+04, 2.404492e+11
7.237489e+04, 2.387137e+11
7.244727e+04, 2.386389e+11
7.251971e+04, 2.391904e+11
7.259223e+04, 2.351100e+11
7.266482e+04, 2.381543e+11
7.273749e+04, 2.303679e+11
7.281023e+04, 2.351063e+11
7.288304e+04, 2.354327e+11
7.295592e+04, 2.301906e+11
7.302888e+04, 2.303357e+11
7.310191e+04, 2.322741e+11
7.317501e+04, 2.319002e+11
7.324818e+04, 2.300900e+11
7.332143e+04, 2.258400e+11
7.339475e+04, 2.252884e+11
7.346815e+04, 2.246068e+11
7.354161e+04, 2.252310e+11
7.361516e+04, 2.240162e+11
7.368877e+04, 2.238976e+11
7.376246e+04, 2.209525e+11
7.383622e+04, 2.226751e+11
7.391006e+04, 2.251472e+11
7.398397e+04, 2.228515e+11
7.405795e+04, 2.212442e+11
7.413201e+04, 2.185380e+11
7.420614e+04, 2.175212e+11
7.428035e+04, 2.161261e+11
7.435463e+04, 2.130065e+11
7.442898e+04, 2.140795e+11
7.450341e+04, 2.160938e+11
7.457792e+04, 2.150885e+11
7.465249e+04, 2.139873e+11
7.472715e+04, 2.144947e+11
7.480187e+04, 2.134201e+11
7.487668e+04, 2.165123e+11
7.495155e+04, 2.074470e+11
7.502650e+04, 2.086774e+11
7.510153e+04, 2.115243e+11
7.517663e+04, 2.078630e+11
7.525181e+04, 2.068696e+11
7.532706e+04, 2.040899e+11
7.540239e+04, 2.043120e+11
7.547779e+04, 2.059103e+11
7.555327e+04, 2.052890e+11
7.562882e+04, 2.068415e+11
7.570445e+04, 1.997996e+11
7.578015e+04, 1.994115e+11
7.585593e+04, 1.972638e+11
7.593179e+04, 2.017558e+11
7.600772e+04, 1.938578e+11
7.608373e+04, 1.966150e+11
7.615981e+04, 1.935512e+11
7.623597e+04, 1.975352e+11
7.631221e+04, 1.907407e+11
7.638852e+04, 1.942963e+11
7.646491e+04, 1.927412e+11
7.654138e+04, 1.930966e+11
7.661792e+04, 1.901740e+11
7.669453e+04, 1.890069e+11
7.677123e+04, 1.908641e+11
7.684800e+04, 1.912025e+11
7.692485e+04, 1.885412e+11
7.700177e+04, 1.890188e+11
7.707877e+04, 1.860276e+11
7.715585e+04, 1.854121e+11
7.723301e+04, 1.849505e+11
7.731024e+04, 1.839563e+11
7.738755e+04, 1.799232e+11
7.746494e+04, 1.803365e+11
7.754241e+04, 1.830973e+11
7.761995e+04, 1.803830e+11
7.769757e+04, 1.790478e+11
7.777527e+04, 1.815060e+11
7.785304e+04, 1.772427e+11
7.793089e+04, 1.785217e+11
7.800882e+04, 1.736565e+11
7.808683e+04, 1.752482e+11
7.816492e+04, 1.762259e+11
7.824308e+04, 1.774716e+11
7.832133e+04, 1.743433e+11
7.839965e+04, 1.763139e+11
7.847805e+04, 1.759032e+11
7.855653e+04, 1.700377e+11
7.863508e+04, 1.706996e+11
7.871372e+04, 1.684224e+11
7.879243e+04, 1.703529e+11
7.887122e+04, 1.678069e+11
7.895010e+04, 1.656534e+11
7.902905e+04, 1.678167e+11
7.910808e+04, 1.671651e+11
7.918718e+04, 1.677948e+11
7.926637e+04, 1.649903e+11
7.934564e+04, 1.675823e+11
7.942498e+04, 1.653104e+11
7.950441e+04, 1.643188e+11
7.958391e+04, 1.634317e+11
7.966350e+04, 1.616497e+11
7.974316e+04, 1.610530e+11
7.982290e+04, 1.592106e+11
7.990273e+04, 1.599269e+11
7.998263e+04, 1.614622e+11
8.006261e+04, 1.598231e+11
8.014267e+04, 1.594975e+11
8.022282e+04, 1.568070e+11
8.030304e+04, 1.613750e+11
8.038334e+04, 1.563167e+11
8.046373e+04, 1.559548e+11
8.054419e+04, 1.559379e+11
8.062473e+04, 1.560133e+11
8.070536e+04, 1.547467e+11
8.078606e+04, 1.535974e+11
8.086685e+04, 1.554538e+11
8.094772e+04, 1.521701e+11
8.102866e+04, 1.505085e+11
8.110969e+04, 1.516843e+11
8.119080e+04, 1.511210e+11
8.127199e+04, 1.504452e+11
8.135326e+04, 1.520993e+11
8.143462e+04, 1.516834e+11
8.151605e+04, 1.494549e+11
8.159757e+04, 1.467395e+11
8.167917e+04, 1.499401e+11
8.176085e+04, 1.495952e+11
8.184261e+04, 1.477441e+11
8.192445e+04, 1.465880e+11
8.200637e+04, 1.436752e+11
8.208838e+04, 1.441305e+11
8.217047e+04, 1.451943e+11
8.225264e+04, 1.442891e+11
8.233489e+04, 1.433536e+11
8.241723e+04, 1.438121e+11
8.249964e+04, 1.447005e+11
8.258214e+04, 1.450589e+11
8.266473e+04, 1.409775e+11
8.274739e+04, 1.416850e+11
8.283014e+04, 1.379118e+11
8.291297e+04, 1.417025e+11
8.299588e+04, 1.397479e+11
8.307888e+04, 1.403637e+11
8.316196e+04, 1.382276e+11
8.324512e+04, 1.368512e+11
8.332836e+04, 1.356275e+11
8.341169e+04, 1.377630e+11
8.349510e+04, 1.361923e+11
8.357860e+04, 1.364579e+11
8.366218e+04, 1.360444e+11
8.374584e+04, 1.326582e+11
8.382958e+04, 1.330066e+11
8.391341e+04, 1.329507e+11
8.399733e+04, 1.341153e+11
8.408132e+04, 1.340602e+11
8.416541e+04, 1.351049e+11
8.424957e+04, 1.317107e+11
8.433382e+04, 1.317221e+11
8.441815e+04, 1.318287e+11
8.450257e+04, 1.307746e+11
8.458708e+04, 1.284851e+11
8.467166e+04, 1.302813e+11
8.475633e+04, 1.301092e+11
8.484109e+04, 1.282884e+11
8.492593e+04, 1.275269e+11
8.501086e+04, 1.253663e+11
8.509587e+04, 1.284547e+11
8.518096e+04, 1.264999e+11
8.526614e+04, 1.291783e+11
8.535141e+04, 1.247332e+11
8.543676e+04, 1.250766e+11
8.552220e+04, 1.248183e+11
8.560772e+04, 1.235113e+11
8.569333e+04, 1.234041e+11
8.577902e+04, 1.244398e+11
8.586480e+04, 1.230616e+11
8.595067e+04, 1.229730e+11
8.603662e+04, 1.232988e+11
8.612265e+04, 1.224442e+11
8.620878e+04, 1.198642e+11
8.629499e+04, 1.205800e+11
8.638128e+04, 1.225178e+11
8.646766e+04, 1.200361e+11
8.655413e+04, 1.194637e+11
8.664068e+04, 1.204308e+11
8.672732e+04, 1.180757e+11
8.681405e+04, 1.162642e+11
8.690087e+04, 1.193178e+11
8.698777e+04, 1.213135e+11
8.707475e+04, 1.161092e+11
8.716183e+04, 1.154968e+11
8.724899e+04, 1.162124e+11
8.733624e+04, 1.144814e+11
8.742358e+04, 1.152617e+11
8.751100e+04, 1.142260e+11
8.759851e+04, 1.121644e+11
8.768611e+04, 1.133600e+11
8.777379e+04, 1.145741e+11
8.786157e+04, 1.128518e+11
8.794943e+04, 1.132681e+11
8.803738e+04, 1.104836e+11
8.812542e+04, 1.120868e+11
8.821354e+04, 1.107421e+11
8.830176e+04, 1.114996e+11
8.839006e+04, 1.104215e+11
8.847845e+04, 1.114078e+11
8.856693e+04, 1.088153e+11
8.865549e+04, 1.091461e+11
8.874415e+04, 1.100341e+11
8.883289e+04, 1.093574e+11
8.892173e+04, 1.078231e+11
8.901065e+04, 1.089945e+11
8.909966e+04, 1.069917e+11
8.918876e+04, 1.069127e+11
8.927795e+04, 1.079084e+11
8.936722e+04, 1.068457e+11
8.945659e+04, 1.047471e+11
8.954605e+04, 1.056779e+11
8.963559e+04, 1.053191e+11
8.972523e+04, 1.042444e+11
8.981496e+04, 1.031260e+11
8.990477e+04, 1.054489e+11
8.999467e+04, 1.036844e+11
9.008467e+04, 1.047027e+11
9.017475e+04, 1.026218e+11
9.026493e+04, 1.031264e+11
9.035519e+04, 1.020087e+11
9.044555e+04, 1.029609e+11
9.053599e+04, 1.026093e+11
9.062653e+04, 1.003532e+11
9.071716e+04, 1.014241e+11
9.080787e+04, 1.011126e+11
9.089868e+04, 9.912200e+10
9.098958e+04, 1.009579e+11
9.108057e+04, 9.877872e+10
9.117165e+04, 9.954566e+10
9.126282e+04, 9.813754e+10
9.135409e+04, 9.800970e+10
9.144544e+04, 9.887813e+10
9.153688e+04, 9.634143e+10
9.162842e+04, 9.850901e+10
9.172005e+04, 9.573668e+10
9.181177e+04, 9.719741e+10
9.190358e+04, 9.604289e+10
9.199549e+04, 9.491616e+10
9.208748e+04, 9.579822e+10
9.217957e+04, 9.514666e+10
9.227175e+04, 9.495312e+10
9.236402e+04, 9.491381e+10
9.245638e+04, 9.396833e+10
9.254884e+04, 9.283861e+10
9.264139e+04, 9.261673e+10
9.273403e+04, 9.300960e+10
9.282676e+04, 9.270099e+10
9.291959e+04, 9.200934e+10
9.301251e+04, 9.134272e+10
9.310552e+04, 9.185698e+10
9.319863e+04, 9.020981e+10
9.329183e+04, 9.011443e+10
9.338512e+04, 9.011100e+10
9.347850e+04, 9.096262e+10
9.357198e+04, 9.045359e+10
9.366556e+04, 9.055820e+10
9.375922e+04, 8.878733e+10
9.385298e+04, 8.899370e+10
9.394683e+04, 8.721875e+10
9.404078e+04, 8.811087e+10
9.413482e+04, 8.757436e+10
9.422896e+04, 8.778219e+10
9.432318e+04, 8.807719e+10
9.441751e+04, 8.545883e+10
9.451192e+04, 8.724484e+10
9.460644e+04, 8.596477e+10
9.470104e+04, 8.597980e+10
9.479574e+04, 8.514099e+10
9.489054e+04, 8.614860e+10
9.498543e+04, 8.463824e+10
9.508042e+04, 8.472565e+10
9.517550e+04, 8.427751e+10
9.527067e+04, 8.479882e+10
9.536594e+04, 8.411620e+10
9.546131e+04, 8.461363e+10
9.555677e+04, 8.330777e+10
9.565233e+04, 8.196962e+10
9.574798e+04, 8.258444e+10
9.584373e+04, 8.189198e+10
9.593957e+04, 8.167329e+10
9.603551e+04, 8.084817e+10
9.613155e+04, 8.143617e+10
9.622768e+04, 8.072863e+10
9.632390e+04, 8.051383e+10
9.642023e+04, 8.028903e+10
9.651665e+04, 8.055135e+10
9.661317e+04, 7.922653e+10
9.670978e+04, 7.867311e+10
9.680649e+04, 7.843063e+10
9.690330e+04, 7.982194e+10
9.700020e+04, 7.826846e+10
9.709720e+04, 7.851502e+10
9.719430e+04, 7.775196e+10
9.729149e+04, 7.795357e+10
9.738878e+04, 7.732439e+10
9.748617e+04, 7.757841e+10
9.758366e+04, 7.727144e+10
9.768124e+04, 7.711751e+10
9.777892e+04, 7.500032e+10
9.787670e+04, 7.493747e+10
9.797458e+04, 7.628882e+10
9.807255e+04, 7.573132e+10
9.817062e+04, 7.466852e+10
9.826879e+04, 7.483510e+10
9.836706e+04, 7.526920e+10
9.846543e+04, 7.454543e+10
9.856390e+04, 7.302645e+10
9.866246e+04, 7.387637e+10
9.876112e+04, 7.466879e+10
9.885988e+04, 7.170733e+10
9.895874e+04, 7.147148e+10
9.905770e+04, 7.231911e+10
9.915676e+04, 7.118643e+10
9.925592e+04, 7.018509e+10
9.935517e+04, 7.195289e+10
9.945453e+04, 7.188433e+10
9.955398e+04, 7.123571e+10
9.965354e+04, 7.064487e+10
9.975319e+04, 7.093096e+10
9.985294e+04, 7.023914e+10
9.995280e+04, 6.990119e+10
1.000527e+05, 7.025850e+10
1.001528e+05, 6.976777e+10
1.002530e+05, 6.974179e+10
1.003532e+05, 6.912231e+10
1.004536e+05, 6.980207e+10
1.005540e+05, 6.856687e+10
1.006546e+05, 6.657272e+10
1.007552e+05, 6.741547e+10
1.008560e+05, 6.710350e+10
1.009568e+05, 6.764097e+10
1.010578e+05, 6.719297e+10
1.011588e+05, 6.706390e+10
1.012600e+05, 6.711191e+10
1.013613e+05, 6.566000e+10
1.014626e+05, 6.638329e+10
1.015641e+05, 6.635241e+10
1.016657e+05, 6.662527e+10
1.017673e+05, 6.553822e+10
1.018691e+05, 6.486279e+10
1.019710e+05, 6.588272e+10
1.020729e+05, 6.491580e+10
1.021750e+05, 6.385837e+10
1.022772e+05, 6.379267e+10
1.023795e+05, 6.320337e+10
1.024818e+05, 6.360648e+10
1.025843e+05, 6.344307e+10
1.026869e+05, 6.371249e+10
1.027896e+05, 6.262553e+10
1.028924e+05, 6.294481e+10
1.029953e+05, 6.311670e+10
1.030983e+05, 6.234083e+10
1.032014e+05, 6.108993e+10
1.033046e+05, 6.174971e+10
1.034079e+05, 6.179298e+10
1.035113e+05, 6.183486e+10
1.036148e+05, 6.063385e+10
1.037184e+05, 6.086913e+10
1.038221e+05, 5.997068e+10
1.039259e+05, 6.044253e+10
1.040299e+05, 5.865194e+10
1.041339e+05, 5.990842e+10
1.042380e+05, 5.902352e+10
1.043423e+05, 5.862864e+10
1.044466e+05, 5.954687e+10
1.045511e+05, 5.882050e+10
1.046556e+05, 5.881998e+10
1.047603e+05, 5.754249e+10
1.048650e+05, 5.861869e+10
1.049699e+05, 5.838072e+10
1.050749e+05, 5.717714e+10
1.051799e+05, 5.768149e+10
1.052851e+05, 5.708839e+10
1.053904e+05, 5.717522e+10
1.054958e+05, 5.683103e+10
1.056013e+05, 5.649993e+10
1.057069e+05, 5.650813e+10
1.058126e+05, 5.639000e+10
1.059184e+05, 5.573624e+10
1.060243e+05, 5.440278e+10
1.061303e+05, 5.449164e+10
1.062365e+05, 5.629791e+10
1.063427e+05, 5.469865e+10
1.064491e+05, 5.572843e+10
1.065555e+05, 5.448246e+10
1.066621e+05, 5.492868e+10
1.067687e+05, 5.458063e+10
1.068755e+05, 5.319681e+10
1.069824e+05, 5.398751e+10
1.070894e+05, 5.263085e+10
1.071964e+05, 5.364577e+10
1.073036e+05, 5.306555e+10
1.074109e+05, 5.276448e+10
1.075184e+05, 5.222117e+10
1.076259e+05, 5.272220e+10
1.077335e+05, 5.272354e+10
1.078412e+05, 5.174045e+10
1.079491e+05, 5.149818e+10
1.080570e+05, 5.183267e+10
1.081651e+05, 5.113721e+10
1.082732e+05, 5.016237e+10
1.083815e+05, 5.217686e+10
1.084899e+05, 5.072439e+10
1.085984e+05, 5.133341e+10
1.087070e+05, 5.052415e+10
1.088157e+05, 5.003276e+10
1.089245e+05, 4.894939e+10
1.090334e+05, 4.926721e+10
1.091425e+05, 4.995935e+10
1.092516e+05, 4.974399e+10
1.093609e+05, 4.890507e+10
1.094702e+05, 4.902328e+10
1.095797e+05, 4.996027e+10
1.096893e+05, 4.846751e+10
1.097990e+05, 4.807500e+10
1.099088e+05, 4.791530e+10
1.100187e+05, 4.860895e+10
1.101287e+05, 4.819121e+10
1.102388e+05, 4.780261e+10
1.103491e+05, 4.823128e+10
1.104594e+05, 4.592466e+10
1.105699e+05, 4.595461e+10
1.106804e+05, 4.648690e+10
1.107911e+05, 4.642580e+10
1.109019e+05, 4.621414e+10
1.110128e+05, 4.712034e+10
1.111238e+05, 4.560258e+10
1.112349e+05, 4.648233e+10
1.113462e+05, 4.559306e+10
1.114575e+05, 4.690473e+10
1.115690e+05, 4.567696e+10
1.116806e+05, 4.556972e+10
1.117922e+05, 4.485171e+10
1.119040e+05, 4.515429e+10
1.120159e+05, 4.404432e+10
1.121279e+05, 4.446475e+10
1.122401e+05, 4.438382e+10
1.123523e+05, 4.442926e+10
1.124647e+05, 4.441689e+10
1.125771e+05, 4.393943e+10
1.126897e+05, 4.377114e+10
1.128024e+05, 4.405963e+10
1.129152e+05, 4.265506e+10
1.130281e+05, 4.237225e+10
1.131411e+05, 4.240804e+10
1.132543e+05, 4.239241e+10
1.133675e+05, 4.271241e+10
1.134809e+05, 4.309579e+10
1.135944e+05, 4.223982e+10
1.137080e+05, 4.210560e+10
1.138217e+05, 4.238089e+10
1.139355e+05, 4.164947e+10
1.140494e+05, 4.207340e+10
1.141635e+05, 4.272835e+10
1.142777e+05, 4.145709e+10
1.143919e+05, 4.083113e+10
1.145063e+05, 4.064007e+10
1.146208e+05, 4.150929e+10
1.147355e+05, 4.057299e+10
1.148502e+05, 4.029936e+10
1.149650e+05, 4.068729e+10
1.150800e+05, 4.042002e+10
1.151951e+05, 3.998133e+10
1.153103e+05, 3.997338e+10
1.154256e+05, 3.919043e+10
1.155410e+05, 3.885621e+10
1.156566e+05, 3.941794e+10
1.157722e+05, 3.905077e+10
1.158880e+05, 3.884646e+10
1.160039e+05, 3.795925e+10
1.161199e+05, 3.793768e+10
1.162360e+05, 3.871866e+10
1.163522e+05, 3.847846e+10
1.164686e+05, 3.879507e+10
1.165851e+05, 3.878417e+10
1.167016e+05, 3.854024e+10
1.168183e+05, 3.811286e+10
1.169352e+05, 3.803989e+10
1.170521e+05, 3.794360e+10
1.171691e+05, 3.742432e+10
1.172863e+05, 3.715415e+10
1.174036e+05, 3.661629e+10
1.175210e+05, 3.701909e+10
1.176385e+05, 3.676656e+10
1.177562e+05, 3.674899e+10
1.178739e+05, 3.694224e+10
1.179918e+05, 3.600326e+10
1.181098e+05, 3.640522e+10
1.182279e+05, 3.575566e+10
1.183461e+05, 3.531316e+10
1.184645e+05, 3.663891e+10
1.185829e+05, 3.521738e+10
1.187015e+05, 3.584792e+10
1.188202e+05, 3.618845e+10
1.189390e+05, 3.584224e+10
1.190580e+05, 3.455554e+10
1.191770e+05, 3.478052e+10
1.192962e+05, 3.439902e+10
1.194155e+05, 3.564429e+10
1.195349e+05, 3.480967e+10
1.196545e+05, 3.431696e+10
1.197741e+05, 3.513218e+10
1.198939e+05, 3.451382e+10
1.200138e+05, 3.417225e+10
1.201338e+05, 3.419383e+10
1.202539e+05, 3.349685e+10
1.203742e+05, 3.444517e+10
1.204946e+05, 3.316468e+10
1.206151e+05, 3.318006e+10
1.207357e+05, 3.409192e+10
1.208564e+05, 3.306190e+10
1.209773e+05, 3.292203e+10
1.210982e+05, 3.276322e+10
1.212193e+05, 3.254815e+10
1.213406e+05, 3.327504e+10
1.214619e+05, 3.221814e+10
1.215834e+05, 3.185838e+10
1.217049e+05, 3.283126e+10
1.218266e+05, 3.256859e+10
1.219485e+05, 3.230393e+10
1.220704e+05, 3.213785e+10
1.221925e+05, 3.184165e+10
1.223147e+05, 3.244692e+10
1.224370e+05, 3.159813e+10
1.225594e+05, 3.129196e+10
1.226820e+05, 3.097788e+10
1.228047e+05, 3.072181e+10
1.229275e+05, 3.127501e+10
1.230504e+05, 3.138536e+10
1.231735e+05, 3.051394e+10
1.232966e+05, 3.097867e+10
1.234199e+05, 3.089364e+10
1.235433e+05, 3.053144e+10
1.236669e+05, 2.998838e+10
1.237906e+05, 3.050026e+10
1.239144e+05, 3.075751e+10
1.240383e+05, 2.993761e+10
1.241623e+05, 2.957413e+10
1.242865e+05, 2.923354e+10
1.244108e+05, 2.920777e+10
1.245352e+05, 2.937617e+10
1.246597e+05, 2.979596e+10
1.247844e+05, 2.931841e+10
1.249091e+05, 2.949213e+10
1.250341e+05, 2.918342e+10
1.251591e+05, 2.917573e+10
1.252842e+05, 2.865332e+10
1.254095e+05, 2.866013e+10
1.255349e+05, 2.850374e+10
1.256605e+05, 2.863005e+10
1.257861e+05, 2.839233e+10
1.259119e+05, 2.838623e+10
1.260378e+05, 2.823348e+10
1.261639e+05, 2.863753e+10
1.262900e+05, 2.825278e+10
1.264163e+05, 2.730257e+10
1.265427e+05, 2.715765e+10
1.266693e+05, 2.678359e+10
1.267960e+05, 2.745822e+10
1.269227e+05, 2.786544e+10
1.270497e+05, 2.753095e+10
1.271767e+05, 2.761186e+10
1.273039e+05, 2.731260e+10
1.274312e+05, 2.773542e+10
1.275586e+05, 2.704080e+10
1.276862e+05, 2.684147e+10
1.278139e+05, 2.635330e+10
1.279417e+05, 2.624551e+10
1.280696e+05, 2.622169e+10
1.281977e+05, 2.656730e+10
1.283259e+05, 2.659580e+10
1.284542e+05, 2.617242e+10
1.285827e+05, 2.635815e+10
1.287113e+05, 2.655023e+10
1.288400e+05, 2.654618e+10
1.289688e+05, 2.589371e+10
1.290978e+05, 2.598295e+10
1.292269e+05, 2.538010e+10
1.293561e+05, 2.541948e+10
1.294855e+05, 2.558232e+10
1.296149e+05, 2.536606e+10
1.297446e+05, 2.524002e+10
1.298743e+05, 2.497601e+10
1.300042e+05, 2.515447e+10
1.301342e+05, 2.510733e+10
1.302643e+05, 2.455812e+10
1.303946e+05, 2.482288e+10
1.305250e+05, 2.468122e+10
1.306555e+05, 2.460584e+10
1.307862e+05, 2.438351e+10
1.309169e+05, 2.396923e+10
1.310479e+05, 2.471214e+10
1.311789e+05, 2.440655e+10
1.313101e+05, 2.440030e+10
1.314414e+05, 2.383695e+10
1.315728e+05, 2.395084e+10
1.317044e+05, 2.370373e+10
1.318361e+05, 2.331625e+10
1.319680e+05, 2.376005e+10
1.320999e+05, 2.289441e+10
1.322320e+05, 2.346803e+10
1.323643e+05, 2.352444e+10
1.324966e+05, 2.349457e+10
1.326291e+05, 2.291758e+10
1.327617e+05, 2.351821e+10
1.328945e+05, 2.294432e+10
1.330274e+05, 2.306355e+10
1.331604e+05, 2.270467e+10
1.332936e+05, 2.276820e+10
1.334269e+05, 2.239660e+10
1.335603e+05, 2.228442e+10
1.336939e+05, 2.256340e+10
1.338276e+05, 2.250390e+10
1.339614e+05, 2.266863e+10
1.340954e+05, 2.267438e+10
1.342294e+05, 2.203791e+10
1.343637e+05, 2.222896e+10
1.344980e+05, 2.179032e+10
1.346325e+05, 2.200325e+10
1.347672e+05, 2.184322e+10
1.349019e+05, 2.176814e+10
1.350368e+05, 2.194310e+10
1.351719e+05, 2.187850e+10
1.353070e+05, 2.120367e+10
1.354424e+05, 2.089974e+10
1.355778e+05, 2.090921e+10
1.357134e+05, 2.099269e+10
1.358491e+05, 2.127506e+10
1.359849e+05, 2.107865e+10
1.361209e+05, 2.079377e+10
1.362570e+05, 2.096410e+10
1.363933e+05, 2.040202e+10
1.365297e+05, 2.055463e+10
1.366662e+05, 2.097277e+10
1.368029e+05, 2.095288e+10
1.369397e+05, 2.024293e+10
1.370766e+05, 2.033786e+10
1.372137e+05, 2.022168e+10
1.373509e+05, 2.051260e+10
1.374883e+05, 2.012302e+10
1.376258e+05, 1.952112e+10
1.377634e+05, 1.978151e+10
1.379012e+05, 2.006658e+10
1.380391e+05, 2.026573e+10
1.381771e+05, 1.988349e+10
1.383153e+05, 1.997926e+10
1.384536e+05, 1.963060e+10
1.385920e+05, 1.955096e+10
1.387306e+05, 1.978473e+10
1.388694e+05, 1.965962e+10
1.390082e+05, 1.951974e+10
1.391472e+05, 1.940984e+10
1.392864e+05, 1.951209e+10
1.394257e+05, 1.932846e+10
1.395651e+05, 1.930962e+10
1.397047e+05, 1.879276e+10
1.398444e+05, 1.905325e+10
1.399842e+05, 1.885247e+10
1.401242e+05, 1.869613e+10
1.402643e+05, 1.892369e+10
1.404046e+05, 1.866382e+10
1.405450e+05, 1.839129e+10
1.406855e+05, 1.818137e+10
1.408262e+05, 1.828516e+10
1.409670e+05, 1.849955e+10
1.411080e+05, 1.831072e+10
1.412491e+05, 1.774658e+10
1.413904e+05, 1.797147e+10
1.415318e+05, 1.795168e+10
1.416733e+05, 1.772033e+10
1.418150e+05, 1.790700e+10
1.419568e+05, 1.770069e+10
1.420987e+05, 1.734402e+10
1.422408e+05, 1.768919e+10
1.423831e+05, 1.756648e+10
1.425255e+05, 1.784831e+10
1.426680e+05, 1.764691e+10
1.428107e+05, 1.759846e+10
1.429535e+05, 1.751338e+10
1.430964e+05, 1.757826e+10
1.432395e+05, 1.705988e+10
1.433828e+05, 1.721645e+10
1.435261e+05, 1.722335e+10
1.436697e+05, 1.715938e+10
1.438133e+05, 1.705121e+10
1.439571e+05, 1.696801e+10
1.441011e+05, 1.673075e+10
1.442452e+05, 1.676738e+10
1.443894e+05, 1.677075e+10
1.445338e+05, 1.658107e+10
1.446784e+05, 1.653526e+10
1.448231e+05, 1.639420e+10
1.449679e+05, 1.623706e+10
1.451128e+05, 1.668043e+10
1.452580e+05, 1.632926e+10
1.454032e+05, 1.642286e+10
1.455486e+05, 1.635118e+10
1.456942e+05, 1.646654e+10
1.458399e+05, 1.608722e+10
1.459857e+05, 1.610572e+10
1.461317e+05, 1.625179e+10
1.462778e+05, 1.536017e+10
1.464241e+05, 1.542325e+10
1.465705e+05, 1.501825e+10
1.467171e+05, 1.558087e+10
1.468638e+05, 1.557162e+10
1.470107e+05, 1.551294e+10
1.471577e+05, 1.523982e+10
1.473048e+05, 1.533031e+10
1.474521e+05, 1.544429e+10
1.475996e+05, 1.557643e+10
1.477472e+05, 1.537317e+10
1.478949e+05, 1.535212e+10
1.480428e+05, 1.552161e+10
1.481909e+05, 1.528910e+10
1.483391e+05, 1.510087e+10
1.484874e+05, 1.505473e+10
1.486359e+05, 1.487520e+10
1.487845e+05, 1.481437e+10
1.489333e+05, 1.474323e+10
1.490823e+05, 1.486429e+10
1.492313e+05, 1.463889e+10
1.493806e+05, 1.483265e+10
1.495299e+05, 1.466081e+10
1.496795e+05, 1.444194e+10
1.498292e+05, 1.434766e+10
1.499790e+05, 1.468918e+10
1.501290e+05, 1.437344e+10
1.502791e+05, 1.450411e+10
1.504294e+05, 1.395319e+10
1.505798e+05, 1.427836e+10
1.507304e+05, 1.444280e+10
1.508811e+05, 1.420497e+10
1.510320e+05, 1.404352e+10
1.511830e+05, 1.406100e+10
1.513342e+05, 1.381099e+10
1.514855e+05, 1.408908e+10
1.516370e+05, 1.402988e+10
1.517887e+05, 1.352874e+10
1.519405e+05, 1.376388e+10
1.520924e+05, 1.396035e+10
1.522445e+05, 1.353931e+10
1.523967e+05, 1.360906e+10
1.525491e+05, 1.322513e+10
1.527017e+05, 1.332471e+10
1.528544e+05, 1.311759e+10
1.530072e+05, 1.317485e+10
1.531602e+05, 1.311682e+10
1.533134e+05, 1.319084e+10
1.534667e+05, 1.312196e+10
1.536202e+05, 1.311426e+10
1.537738e+05, 1.300521e+10
1.539276e+05, 1.295172e+10
1.540815e+05, 1.318566e+10
1.542356e+05, 1.282176e+10
1.543898e+05, 1.286190e+10
1.545442e+05, 1.276404e+10
1.546988e+05, 1.273863e+10
1.548534e+05, 1.278743e+10
1.550083e+05, 1.278514e+10
1.551633e+05, 1.269914e+10
1.553185e+05, 1.263005e+10
1.554738e+05, 1.260951e+10
1.556293e+05, 1.246478e+10
1.557849e+05, 1.243505e+10
1.559407e+05, 1.249208e+10
1.560966e+05, 1.246265e+10
1.562527e+05, 1.244134e+10
1.564090e+05, 1.218391e+10
1.565654e+05, 1.225740e+10
1.567219e+05, 1.232783e+10
1.568787e+05, 1.219888e+10
1.570355e+05, 1.214346e+10
1.571926e+05, 1.203177e+10
1.573498e+05, 1.211170e+10
1.575071e+05, 1.185218e+10
1.576646e+05, 1.185327e+10
1.578223e+05, 1.205764e+10
1.579801e+05, 1.184591e+10
1.581381e+05, 1.170564e+10
1.582962e+05, 1.186941e+10
1.584545e+05, 1.170780e+10
1.586130e+05, 1.150179e+10
1.587716e+05, 1.174825e+10
1.589304e+05, 1.131214e+10
1.590893e+05, 1.133984e+10
1.592484e+05, 1.110493e+10
1.594076e+05, 1.149591e+10
1.595670e+05, 1.118876e+10
1.597266e+05, 1.118118e+10
1.598863e+05, 1.101734e+10
1.600462e+05, 1.105931e+10
1.602063e+05, 1.093078e+10
1.603665e+05, 1.111912e+10
1.605268e+05, 1.100225e+10
1.606874e+05, 1.115731e+10
1.608481e+05, 1.094138e+10
1.610089e+05, 1.088795e+10
1.611699e+05, 1.078792e+10
1.613311e+05, 1.099197e+10
1.614924e+05, 1.074103e+10
1.616539e+05, 1.067345e+10
1.618156e+05, 1.079920e+10
1.619774e+05, 1.073091e+10
1.621394e+05, 1.055227e+10
1.623015e+05, 1.071548e+10
1.624638e+05, 1.073710e+10
1.626263e+05, 1.051030e+10
1.627889e+05, 1.041613e+10
1.629517e+05, 1.057126e+10
1.631146e+05, 1.051913e+10
1.632777e+05, 1.032978e+10
1.634410e+05, 1.056120e+10
1.636045e+05, 1.058805e+10
1.637681e+05, 1.029971e+10
1.639318e+05, 1.006688e+10
1.640958e+05, 1.021225e+10
1.642599e+05, 1.020145e+10
1.644241e+05, 1.014860e+10
1.645885e+05, 1.023006e+10
1.647531e+05, 9.818746e+09
1.649179e+05, 1.003097e+10
1.650828e+05, 1.007242e+10
1.652479e+05, 9.979961e+09
1.654131e+05, 9.932108e+09
1.655785e+05, 9.599678e+09
1.657441e+05, 9.719696e+09
1.659099e+05, 9.746683e+09
1.660758e+05, 9.633015e+09
1.662419e+05, 9.485169e+09
1.664081e+05, 9.487938e+09
1.665745e+05, 9.512842e+09
1.667411e+05, 9.603772e+09
1.669078e+05, 9.631672e+09
1.670747e+05, 9.430598e+09
1.672418e+05, 9.337523e+09
1.674090e+05, 9.516425e+09
1.675765e+05, 9.276558e+09
1.677440e+05, 9.580590e+09
1.679118e+05, 9.317152e+09
1.680797e+05, 9.311232e+09
1.682478e+05, 9.182467e+09
1.684160e+05, 8.943925e+09
1.685844e+05, 9.288431e+09
1.687530e+05, 8.953634e+09
1.689218e+05, 9.101976e+09
1.690907e+05, 9.129020e+09
1.692598e+05, 8.950846e+09
1.694290e+05, 9.099843e+09
1.695985e+05, 9.086897e+09
1.697681e+05, 8.950973e+09
1.699378e+05, 8.882046e+09
1.701078e+05, 8.990791e+09
1.702779e+05, 8.888880e+09
1.704482e+05, 8.909628e+09
1.706186e+05, 8.829206e+09
1.707892e+05, 8.705463e+09
1.709600e+05, 8.759937e+09
1.711310e+05, 8.725808e+09
1.713021e+05, 8.523178e+09
1.714734e+05, 8.571946e+09
1.716449e+05, 8.613774e+09
1.718165e+05, 8.540248e+09
1.719883e+05, 8.456726e+09
1.721603e+05, 8.477886e+09
1.723325e+05, 8.326564e+09
1.725048e+05, 8.288080e+09
1.726773e+05, 8.291286e+09
1.728500e+05, 8.286523e+09
1.730229e+05, 8.340634e+09
1.731959e+05, 8.259363e+09
1.733691e+05, 8.189409e+09
1.735424e+05, 8.102282e+09
1.737160e+05, 8.122988e+09
1.738897e+05, 8.145802e+09
1.740636e+05, 7.997853e+09
1.742377e+05, 8.135492e+09
1.744119e+05, 7.988558e+09
1.745863e+05, 8.019171e+09
1.747609e+05, 7.895923e+09
1.749357e+05, 7.999230e+09
1.751106e+05, 7.968070e+09
1.752857e+05, 7.710621e+09
1.754610e+05, 7.753367e+09
1.756364e+05, 7.792664e+09
1.758121e+05, 7.810369e+09
1.759879e+05, 7.754948e+09
1.761639e+05, 7.755161e+09
1.763400e+05, 7.612101e+09
1.765164e+05, 7.644979e+09
1.766929e+05, 7.657145e+09
1.768696e+05, 7.673190e+09
1.770465e+05, 7.600850e+09
1.772235e+05, 7.530147e+09
1.774007e+05, 7.518878e+09
1.775781e+05, 7.510350e+09
1.777557e+05, 7.344287e+09
1.779335e+05, 7.515081e+09
1.781114e+05, 7.403846e+09
1.782895e+05, 7.389225e+09
1.784678e+05, 7.377446e+09
1.786463e+05, 7.377908e+09
1.788249e+05, 7.370466e+09
1.790037e+05, 7.382925e+09
1.791827e+05, 7.255856e+09
1.793619e+05, 7.145365e+09
1.795413e+05, 7.162475e+09
1.797208e+05, 7.242434e+09
1.799006e+05, 7.361977e+09
1.800805e+05, 7.145411e+09
1.802605e+05, 6.996087e+09
1.804408e+05, 7.109484e+09
1.806212e+05, 7.012621e+09
1.808019e+05, 6.938138e+09
1.809827e+05, 6.965011e+09
1.811636e+05, 7.042169e+09
1.813448e+05, 6.884172e+09
1.815262e+05, 6.770098e+09
1.817077e+05, 6.729068e+09
1.818894e+05, 6.752233e+09
1.820713e+05, 6.879386e+09
1.822533e+05, 6.788683e+09
1.824356e+05, 6.714977e+09
1.826180e+05, 6.742983e+09
1.828007e+05, 6.644737e+09
1.829835e+05, 6.653252e+09
1.831664e+05, 6.615946e+09
1.833496e+05, 6.718919e+09
1.835330e+05, 6.652811e+09
1.837165e+05, 6.577722e+09
1.839002e+05, 6.553960e+09
1.840841e+05, 6.531587e+09
1.842682e+05, 6.437003e+09
1.844525e+05, 6.595560e+09
1.846369e+05, 6.490346e+09
1.848215e+05, 6.507014e+09
1.850064e+05, 6.313829e+09
1.851914e+05, 6.305717e+09
1.853766e+05, 6.294613e+09
1.855619e+05, 6.244246e+09
1.857475e+05, 6.317872e+09
1.859333e+05, 6.175900e+09
1.861192e+05, 6.229889e+09
1.863053e+05, 6.186467e+09
1.864916e+05, 6.223861e+09
1.866781e+05, 6.160081e+09
1.868648e+05, 6.238561e+09
1.870516e+05, 6.151567e+09
1.872387e+05, 6.011528e+09
1.874259e+05, 6.121930e+09
1.876134e+05, 5.979875e+09
1.878010e+05, 6.054965e+09
1.879888e+05, 6.061152e+09
1.881768e+05, 6.002952e+09
1.883649e+05, 5.964547e+09
1.885533e+05, 5.926348e+09
1.887419e+05, 5.883254e+09
1.889306e+05, 5.869081e+09
1.891195e+05, 5.936655e+09
1.893086e+05, 5.848383e+09
1.894980e+05, 5.792302e+09
1.896875e+05, 5.775340e+09
1.898771e+05, 5.803521e+09
1.900670e+05, 5.715133e+09
1.902571e+05, 5.815695e+09
1.904473e+05, 5.655558e+09
1.906378e+05, 5.761020e+09
1.908284e+05, 5.626232e+09
1.910193e+05, 5.751796e+09
1.912103e+05, 5.709401e+09
1.914015e+05, 5.614234e+09
1.915929e+05, 5.691181e+09
1.917845e+05, 5.478758e+09
1.919763e+05, 5.516158e+09
1.921682e+05, 5.419718e+09
1.923604e+05, 5.460250e+09
1.925528e+05, 5.481281e+09
1.927453e+05, 5.465316e+09
1.929381e+05, 5.393794e+09
1.931310e+05, 5.442205e+09
1.933241e+05, 5.381501e+09
1.935175e+05, 5.337645e+09
1.937110e+05, 5.385985e+09
1.939047e+05, 5.427013e+09
1.940986e+05, 5.292957e+09
1.942927e+05, 5.230728e+09
1.944870e+05, 5.279219e+09
1.946815e+05, 5.292471e+09
1.948762e+05, 5.232588e+09
1.950710e+05, 5.321852e+09
1.952661e+05, 5.220609e+09
1.954614e+05, 5.228813e+09
1.956568e+05, 5.096485e+09
1.958525e+05, 5.040007e+09
1.960483e+05, 5.148909e+09
1.962444e+05, 4.993038e+09
1.964406e+05, 4.996188e+09
1.966371e+05, 5.037700e+09
1.968337e+05, 5.052406e+09
1.970305e+05, 5.082147e+09
1.972276e+05, 5.049799e+09
1.974248e+05, 4.955272e+09
1.976222e+05, 4.987884e+09
1.978198e+05, 4.964797e+09
1.980177e+05, 4.881674e+09
1.982157e+05, 4.858718e+09
1.984139e+05, 4.867884e+09
1.986123e+05, 4.879893e+09
1.988109e+05, 4.845404e+09
1.990097e+05, 4.802442e+09
1.992087e+05, 4.818476e+09
1.994080e+05, 4.730060e+09
1.996074e+05, 4.753798e+09
1.998070e+05, 4.833887e+09